SpectraSuite Data File
++++++++++++++++++++++++++++++++++++
Date: Wed Jan 05 13:57:34 EET 2022
User: optika
Dark Spectrum Present: Yes
Reference Spectrum Present: No
Number of Sampled Component Spectra: 1
Spectrometers: USB4H03366
Integration Time (usec): 2000 (USB4H03366)
Spectra Averaged: 1 (USB4H03366)
Boxcar Smoothing: 0 (USB4H03366)
Correct for Electrical Dark: No (USB4H03366)
Strobe/Lamp Enabled: No (USB4H03366)
Correct for Detector Non-linearity: No (USB4H03366)
Correct for Stray Light: No (USB4H03366)
Number of Pixels in Processed Spectrum: 3648
>>>>>Begin Processed Spectral Data<<<<<
291.48	-45.06
291.93	-45.06
292.37	-45.06
292.82	34.82
293.26	-12.29
293.70	4.10
294.15	14.34
294.59	75.77
295.04	53.25
295.48	-16.38
295.93	26.62
296.37	-26.62
296.82	40.96
297.26	18.43
297.71	-40.96
298.15	-108.54
298.59	34.82
299.04	-53.25
299.48	-47.10
299.93	69.63
300.37	-26.62
300.82	20.48
301.26	55.30
301.70	-28.67
302.15	26.62
302.59	40.96
303.04	-61.44
303.48	-51.20
303.92	-53.25
304.37	32.77
304.81	53.25
305.26	-14.34
305.70	6.14
306.14	47.10
306.59	-98.30
307.03	36.86
307.47	34.82
307.92	81.92
308.36	24.58
308.81	-51.20
309.25	-32.77
309.69	-63.49
310.14	36.86
310.58	22.53
311.02	45.06
311.47	90.11
311.91	61.44
312.36	-83.97
312.80	6.14
313.24	30.72
313.69	-10.24
314.13	-106.49
314.57	-30.72
315.02	-28.67
315.46	49.15
315.90	22.53
316.35	18.43
316.79	-6.14
317.23	-2.05
317.68	30.72
318.12	-22.53
318.56	-38.91
319.00	-69.63
319.45	-69.63
319.89	38.91
320.33	0.00
320.78	-4.10
321.22	20.48
321.66	-55.30
322.11	45.06
322.55	-26.62
322.99	49.15
323.43	-90.11
323.88	-45.06
324.32	6.14
324.76	-63.49
325.21	22.53
325.65	38.91
326.09	-12.29
326.53	2.05
326.98	-20.48
327.42	0.00
327.86	22.53
328.30	32.77
328.75	-79.87
329.19	43.01
329.63	-4.10
330.07	-73.73
330.52	20.48
330.96	8.19
331.40	-8.19
331.84	-34.82
332.29	-8.19
332.73	28.67
333.17	18.43
333.61	28.67
334.05	-12.29
334.50	-53.25
334.94	2.05
335.38	18.43
335.82	-61.44
336.27	22.53
336.71	-4.10
337.15	-8.19
337.59	45.06
338.03	-20.48
338.47	22.53
338.92	67.58
339.36	57.34
339.80	-24.58
340.24	83.97
340.68	38.91
341.13	92.16
341.57	-30.72
342.01	20.48
342.45	8.19
342.89	-43.01
343.33	-26.62
343.78	-18.43
344.22	8.19
344.66	-69.63
345.10	20.48
345.54	30.72
345.98	6.14
346.43	8.19
346.87	-6.14
347.31	69.63
347.75	-43.01
348.19	-65.53
348.63	38.91
349.07	4.10
349.51	-43.01
349.96	-12.29
350.40	-40.96
350.84	24.58
351.28	14.34
351.72	24.58
352.16	67.58
352.60	-53.25
353.04	-88.06
353.49	57.34
353.93	28.67
354.37	59.39
354.81	-8.19
355.25	0.00
355.69	-24.58
356.13	86.01
356.57	-26.62
357.01	8.19
357.45	0.00
357.89	-51.20
358.33	30.72
358.78	-8.19
359.22	-30.72
359.66	-20.48
360.10	18.43
360.54	-24.58
360.98	47.10
361.42	-6.14
361.86	4.10
362.30	12.29
362.74	79.87
363.18	-77.82
363.62	-8.19
364.06	-92.16
364.50	20.48
364.94	129.02
365.38	59.39
365.82	-32.77
366.26	-22.53
366.70	-2.05
367.14	4.10
367.58	-32.77
368.02	-6.14
368.46	10.24
368.90	14.34
369.34	-28.67
369.78	38.91
370.22	-6.14
370.66	86.01
371.10	106.49
371.54	20.48
371.98	-18.43
372.42	-51.20
372.86	6.14
373.30	28.67
373.74	-38.91
374.18	-43.01
374.62	73.73
375.06	-116.73
375.50	-12.29
375.94	8.19
376.38	6.14
376.82	-26.62
377.26	77.82
377.70	-45.06
378.14	94.21
378.58	45.06
379.02	-12.29
379.46	-40.96
379.90	-26.62
380.34	110.59
380.78	83.97
381.22	47.10
381.66	-16.38
382.10	-40.96
382.53	114.69
382.97	-34.82
383.41	45.06
383.85	159.74
384.29	6.14
384.73	-10.24
385.17	145.41
385.61	43.01
386.05	14.34
386.49	6.14
386.93	55.30
387.36	2.05
387.80	4.10
388.24	38.91
388.68	-4.10
389.12	-10.24
389.56	38.91
390.00	40.96
390.44	-14.34
390.88	0.00
391.31	12.29
391.75	69.63
392.19	-2.05
392.63	69.63
393.07	-49.15
393.51	20.48
393.95	61.44
394.39	-45.06
394.82	-2.05
395.26	28.67
395.70	40.96
396.14	6.14
396.58	65.53
397.02	53.25
397.45	-40.96
397.89	16.38
398.33	24.58
398.77	30.72
399.21	-110.59
399.65	-73.73
400.08	96.25
400.52	59.39
400.96	40.96
401.40	28.67
401.84	2.05
402.27	-47.10
402.71	-32.77
403.15	100.35
403.59	28.67
404.03	24.58
404.46	-28.67
404.90	32.77
405.34	26.62
405.78	-32.77
406.22	14.34
406.65	8.19
407.09	63.49
407.53	12.29
407.97	12.29
408.40	-12.29
408.84	-24.58
409.28	24.58
409.72	88.06
410.16	-6.14
410.59	98.30
411.03	20.48
411.47	92.16
411.91	86.01
412.34	40.96
412.78	43.01
413.22	-18.43
413.66	-4.10
414.09	0.00
414.53	120.83
414.97	18.43
415.40	-6.14
415.84	53.25
416.28	-4.10
416.72	47.10
417.15	94.21
417.59	-36.86
418.03	145.41
418.46	43.01
418.90	133.12
419.34	100.35
419.78	122.88
420.21	-28.67
420.65	102.40
421.09	102.40
421.52	69.63
421.96	94.21
422.40	102.40
422.83	63.49
423.27	120.83
423.71	63.49
424.14	100.35
424.58	57.34
425.02	90.11
425.45	65.54
425.89	53.25
426.33	81.92
426.76	116.73
427.20	186.37
427.64	188.41
428.07	14.34
428.51	186.37
428.95	98.30
429.38	167.93
429.82	53.25
430.26	57.34
430.69	161.79
431.13	102.40
431.57	135.17
432.00	172.03
432.44	116.73
432.87	137.21
433.31	100.35
433.75	229.37
434.18	120.83
434.62	112.64
435.05	112.64
435.49	169.98
435.93	239.61
436.36	106.49
436.80	210.94
437.23	165.89
437.67	229.37
438.11	223.23
438.54	186.37
438.98	153.60
439.41	186.37
439.85	202.75
440.29	178.17
440.72	286.72
441.16	249.85
441.59	272.38
442.03	221.18
442.46	294.91
442.90	372.73
443.34	309.24
443.77	280.57
444.21	251.90
444.64	233.47
445.08	356.35
445.51	282.62
445.95	389.11
446.38	385.02
446.82	296.96
447.25	423.93
447.69	299.00
448.13	344.06
448.56	356.35
449.00	413.69
449.43	518.14
449.87	350.20
450.30	587.77
450.74	477.18
451.17	524.28
451.61	430.07
452.04	550.90
452.48	505.85
452.91	550.90
453.35	581.62
453.78	579.58
454.22	567.29
454.65	595.96
455.09	591.86
455.52	753.65
455.96	757.75
456.39	583.67
456.83	761.84
457.26	692.21
457.69	782.32
458.13	780.28
458.56	849.91
459.00	1038.32
459.43	794.61
459.87	1032.18
460.30	1044.46
460.74	1118.19
461.17	1062.90
461.61	1232.88
462.04	1116.14
462.47	1302.51
462.91	1214.45
463.34	1398.76
463.78	1359.85
464.21	1499.11
464.65	1437.67
465.08	1578.98
465.51	1740.77
465.95	1701.86
466.38	1722.34
466.82	1851.36
467.25	1923.04
467.69	2002.91
468.12	2191.33
468.55	2088.93
468.99	2209.76
469.42	2303.96
469.86	2392.03
470.29	2432.99
470.72	2648.02
471.16	2410.46
471.59	2426.84
472.03	2842.58
472.46	2682.84
472.89	2832.34
473.33	2969.55
473.76	3266.51
474.19	3352.52
474.63	3200.98
475.06	3282.89
475.49	3598.28
475.93	3504.07
476.36	3901.38
476.80	3889.09
477.23	4237.25
477.66	3936.20
478.10	4143.04
478.53	4196.29
478.96	4650.94
479.40	4681.66
479.83	4749.24
480.26	4566.97
480.70	4919.22
481.13	4999.09
481.56	5312.43
482.00	5337.01
482.43	5412.78
482.86	5525.42
483.30	5539.76
483.73	5748.65
484.16	5978.02
484.59	6027.17
485.03	6148.00
485.46	6401.95
485.89	6221.73
486.33	6352.80
486.76	6608.80
487.19	6369.18
487.63	6625.18
488.06	6887.32
488.49	7143.32
488.92	7171.99
489.36	7274.38
489.79	7176.08
490.22	7448.46
490.65	7354.26
491.09	7813.00
491.52	7518.09
491.95	8171.40
492.38	7778.19
492.82	8341.38
493.25	8269.70
493.68	8226.69
494.11	8273.79
494.55	8501.12
494.98	8691.58
495.41	8570.75
495.84	8734.59
496.28	9013.11
496.71	8787.83
497.14	9056.12
497.57	9025.40
498.01	9002.87
498.44	9377.65
498.87	9705.32
499.30	9586.54
499.73	9574.25
500.17	9400.18
500.60	9889.64
501.03	10026.86
501.46	9916.26
501.89	10127.21
502.33	10258.28
502.76	9910.12
503.19	10800.99
503.62	10823.51
504.05	10766.17
504.49	10422.11
504.92	10645.34
505.35	11069.27
505.78	11208.53
506.21	11468.62
506.64	11374.42
507.08	11345.75
507.51	11685.71
507.94	11659.09
508.37	11720.53
508.80	11892.55
509.23	11818.83
509.67	11933.51
510.10	12543.81
510.53	12400.45
510.96	12537.66
511.39	12574.53
511.82	12547.90
512.25	12672.83
512.69	12855.10
513.12	12844.86
513.55	13152.06
513.98	13051.70
514.41	13471.54
514.84	13199.16
515.27	13322.04
515.70	13270.84
516.14	13494.07
516.57	13348.66
517.00	13692.72
517.43	14061.35
517.86	14405.41
518.29	14030.63
518.72	14118.70
519.15	14360.36
519.58	14530.34
520.01	14473.00
520.45	14421.80
520.88	14604.07
521.31	14700.32
521.74	14675.74
522.17	15152.92
522.60	15343.38
523.03	15634.19
523.46	15265.56
523.89	15703.82
524.32	15417.11
524.75	16142.09
525.18	15863.57
525.61	16211.72
526.04	15806.22
526.47	16301.83
526.90	16019.21
527.33	16236.30
527.77	16109.32
528.20	16561.92
528.63	16348.93
529.06	16531.20
529.49	16277.26
529.92	16891.65
530.35	16692.99
530.78	17204.99
531.21	17225.47
531.64	17155.83
532.07	16977.66
532.50	17440.50
532.93	17510.13
533.36	17655.54
533.79	17606.39
534.22	17893.10
534.65	18085.61
535.08	18216.68
535.51	17768.18
535.94	17903.34
536.37	17436.41
536.80	18489.06
537.23	18624.23
537.66	18175.72
538.09	18183.91
538.52	18317.03
538.95	18433.77
539.38	18603.75
539.81	18831.07
540.24	18910.94
540.66	18546.40
541.09	19093.21
541.52	18753.25
541.95	19007.20
542.38	19222.23
542.81	19128.03
543.24	19146.46
543.67	19203.80
544.10	19117.79
544.53	19275.48
544.96	19140.32
545.39	19791.57
545.82	19447.51
546.25	19519.19
546.68	19822.29
547.11	19752.66
547.53	20123.34
547.96	20088.53
548.39	19971.79
548.82	20033.23
549.25	20223.69
549.68	20127.44
550.11	20235.98
550.54	20688.58
550.97	20362.95
551.40	20717.25
551.82	20795.07
552.25	20645.57
552.68	20317.90
553.11	21012.16
553.54	20821.70
553.97	21065.41
554.40	21360.31
554.83	21585.59
555.26	21606.07
555.68	21468.86
556.11	21587.64
556.54	21833.39
556.97	21571.25
557.40	22240.94
557.83	21954.22
558.26	21890.74
558.68	21888.69
559.11	22677.16
559.54	22458.03
559.97	22679.21
560.40	22255.28
560.83	22965.92
561.25	22861.48
561.68	23107.23
562.11	22982.31
562.54	22832.80
562.97	22902.43
563.40	23424.67
563.82	23295.64
564.25	23774.87
564.68	23436.95
565.11	23643.80
565.54	23389.85
565.96	24108.69
566.39	23586.46
566.82	24501.90
567.25	24123.02
567.68	24714.89
568.10	24374.92
568.53	24809.09
568.96	24549.00
569.39	24686.22
569.81	24325.77
570.24	24848.00
570.67	24944.26
571.10	24665.74
571.53	24848.00
571.95	25171.58
572.38	24966.79
572.81	25665.14
573.24	25325.18
573.66	25607.80
574.09	25511.55
574.52	25839.22
574.95	25212.54
575.37	26031.73
575.80	25640.57
576.23	26396.27
576.66	26199.66
577.08	25996.92
577.51	25986.68
577.94	26416.75
578.36	26050.16
578.79	26314.35
579.22	26478.19
579.65	26115.70
580.07	26605.16
580.50	26744.42
580.93	26431.08
581.36	26558.06
581.78	27149.92
582.21	26984.04
582.64	26582.63
583.06	26855.01
583.49	26812.01
583.92	26818.15
584.34	27047.52
584.77	27164.26
585.20	26988.13
585.62	27332.19
586.05	26859.11
586.48	27571.80
586.90	27569.76
587.33	27065.96
587.76	27766.36
588.18	27772.50
588.61	27418.21
589.04	28096.08
589.46	27303.52
589.89	27866.71
590.32	27571.80
590.74	28108.37
591.17	28438.09
591.60	28065.36
592.02	28091.99
592.45	28280.40
592.88	27723.35
593.30	28151.38
593.73	28755.53
594.15	28434.00
594.58	28081.75
595.01	28626.51
595.43	27985.49
595.86	28999.24
596.29	28915.27
596.71	28685.90
597.14	28939.85
597.56	29308.48
597.99	29378.11
598.42	28702.28
598.84	29388.35
599.27	29210.18
599.69	29247.04
600.12	29498.94
600.55	29861.43
600.97	29470.27
601.40	29447.74
601.82	30045.75
602.25	29728.31
602.67	29777.47
603.10	29820.47
603.53	29896.25
603.95	30422.58
604.38	30744.11
604.80	30246.45
605.23	30111.28
605.65	30664.24
606.08	31108.65
606.50	30762.54
606.93	30817.83
607.36	30582.32
607.78	31030.82
608.21	31292.96
608.63	31221.28
609.06	31313.44
609.48	31317.54
609.91	31450.66
610.33	31211.04
610.76	31192.61
611.18	31534.62
611.61	31186.47
612.03	31708.70
612.46	31708.70
612.88	31940.12
613.31	31428.13
613.73	31706.65
614.16	31729.18
614.58	31766.04
615.01	31575.58
615.43	32335.38
615.86	32222.74
616.28	32007.70
616.71	31983.13
617.13	32337.43
617.56	31917.59
617.98	32364.05
618.41	32222.74
618.83	32454.16
619.26	31985.18
619.68	32658.96
620.11	32448.02
620.53	32699.92
620.96	32542.22
621.38	32540.18
621.81	32456.21
622.23	32742.92
622.65	32312.85
623.08	33238.53
623.50	32833.03
623.93	32597.52
624.35	32609.81
624.78	33025.54
625.20	32615.95
625.62	32974.34
626.05	32931.34
626.47	33363.46
626.90	32894.47
627.32	33220.10
627.75	32480.78
628.17	33250.82
628.59	33250.82
629.02	33312.26
629.44	33646.08
629.87	32882.19
630.29	33306.12
630.71	33379.84
631.14	33383.94
631.56	33842.68
631.99	33222.15
632.41	33932.79
632.83	33273.35
633.26	33428.99
633.68	33424.90
634.11	33467.91
634.53	33730.05
634.95	33857.02
635.38	33785.34
635.80	33666.56
636.22	33181.19
636.65	33990.14
637.07	33953.27
637.49	33568.26
637.92	33762.81
638.34	34203.13
638.76	33601.02
639.19	33830.40
639.61	33652.22
640.04	34266.61
640.46	34375.16
640.88	34354.68
641.31	34545.14
641.73	34407.92
642.15	33912.31
642.57	34653.68
643.00	34164.21
643.42	34502.13
643.84	34565.62
644.27	34786.80
644.69	34225.65
645.11	34725.36
645.54	34471.41
645.96	34377.20
646.38	34903.53
646.81	34848.24
647.23	34622.96
647.65	34395.64
648.07	34850.28
648.50	34663.92
648.92	34594.29
649.34	34661.87
649.77	34678.25
650.19	34688.49
650.61	34385.40
651.03	34973.16
651.46	34569.71
651.88	34135.54
652.30	34852.33
652.72	34924.01
653.15	35048.94
653.57	34772.46
653.99	35270.12
654.41	35050.99
654.84	34770.41
655.26	34838.00
655.68	35278.31
656.10	35268.07
656.53	35108.33
656.95	35223.01
657.37	34809.32
657.79	34893.29
658.22	35034.60
658.64	35235.30
659.06	34846.19
659.48	35212.77
659.90	34924.01
660.33	35077.61
660.75	34999.79
661.17	35036.65
661.59	34876.91
662.02	34901.48
662.44	34663.92
662.86	34825.71
663.28	34278.90
663.70	35010.03
664.12	34788.85
664.55	34819.56
664.97	34190.84
665.39	35061.22
665.81	34747.89
666.23	34917.87
666.66	34565.62
667.08	35126.76
667.50	34432.50
667.92	35290.60
668.34	34670.06
668.76	34928.11
669.19	34086.39
669.61	34874.86
670.03	35040.75
670.45	35286.50
670.87	34719.21
671.29	34909.68
671.71	34440.69
672.14	34907.63
672.56	34158.07
672.98	34510.32
673.40	35114.47
673.82	34844.14
674.24	34739.69
674.66	35016.17
675.08	34876.91
675.51	34977.26
675.93	35081.70
676.35	34825.71
676.77	34420.21
677.19	34559.47
677.61	34842.09
678.03	35145.19
678.45	34813.42
678.87	34430.45
679.29	34258.42
679.72	34770.41
680.14	34690.54
680.56	34831.85
680.98	34528.75
681.40	34260.47
681.82	34280.95
682.24	34203.13
682.66	34258.42
683.08	34538.99
683.50	34354.68
683.92	34440.69
684.34	33957.37
684.76	34457.07
685.18	34745.84
685.61	34620.91
686.03	33969.66
686.45	34176.50
686.87	34012.66
687.29	34889.20
687.71	34153.97
688.13	34227.70
688.55	33863.16
688.97	34614.77
689.39	34715.12
689.81	34387.44
690.23	34029.05
690.65	34256.37
691.07	34137.59
691.49	33916.41
691.91	33914.36
692.33	33971.71
692.75	33670.65
693.17	34203.13
693.59	33492.48
694.01	34231.80
694.43	33920.51
694.85	34016.76
695.27	33760.76
695.69	33627.65
696.11	33701.37
696.53	33496.58
696.95	33531.39
697.37	33873.40
697.79	33332.74
698.21	33240.58
698.63	33336.84
699.05	33553.92
699.47	32978.44
699.89	33607.17
700.31	32771.60
700.73	33324.55
701.15	33216.01
701.57	33564.16
701.98	33367.55
702.40	33295.88
702.82	33017.35
703.24	33609.22
703.66	33181.19
704.08	33711.61
704.50	32597.52
704.92	32890.38
705.34	32343.57
705.76	32695.82
706.18	32941.58
706.60	33074.70
707.02	33039.88
707.44	33453.57
707.85	32691.73
708.27	32984.58
708.69	32994.82
709.11	33111.56
709.53	32837.13
709.95	32310.80
710.37	32624.14
710.79	32669.20
711.21	32108.05
711.63	31692.32
712.04	31663.64
712.46	32273.94
712.88	32050.71
713.30	32402.96
713.72	31772.19
714.14	31645.21
714.56	32142.87
714.98	31964.70
715.39	31307.30
715.81	31843.87
716.23	31245.86
716.65	31385.12
717.07	31227.43
717.49	30987.82
717.91	31057.45
718.32	30991.91
718.74	30438.96
719.16	30740.01
719.58	29806.14
720.00	30207.54
720.42	29761.08
720.83	30420.53
721.25	29822.52
721.67	29128.26
722.09	29271.62
722.51	29247.04
722.93	29140.55
723.34	29150.79
723.76	29218.37
724.18	28919.37
724.60	29134.40
725.02	29253.19
725.43	28862.02
725.85	29060.68
726.27	28450.38
726.69	28286.54
727.11	28018.26
727.52	28712.52
727.94	28231.25
728.36	28765.77
728.78	28321.36
729.19	28470.86
729.61	28474.96
730.03	28456.53
730.45	28423.76
730.87	28522.06
731.28	28579.40
731.70	28360.27
732.12	28417.61
732.54	28483.15
732.95	28110.42
733.37	28237.39
733.79	28339.79
734.21	28569.16
734.62	28280.40
735.04	28575.31
735.46	28276.30
735.87	28522.06
736.29	28450.38
736.71	28927.56
737.13	28722.76
737.54	28845.64
737.96	28829.26
738.38	28415.57
738.80	28425.81
739.21	28995.14
739.63	28419.66
740.05	28845.64
740.46	28915.27
740.88	28368.46
741.30	28577.36
741.71	28315.22
742.13	28098.13
742.55	28307.02
742.97	28122.71
743.38	27958.87
743.80	28161.62
744.22	27739.74
744.63	27711.07
745.05	28094.04
745.47	27811.42
745.88	27942.49
746.30	27668.06
746.72	27952.73
747.13	27057.76
747.55	27475.55
747.97	27313.76
748.38	27133.54
748.80	27029.09
749.22	27893.33
749.63	27211.36
750.05	27422.30
750.46	27129.44
750.88	27229.79
751.30	26680.94
751.71	27053.67
752.13	26859.11
752.55	26535.53
752.96	26754.66
753.38	26771.05
753.79	26361.45
754.21	26394.22
754.63	26453.61
755.04	26693.22
755.46	26437.23
755.88	26238.58
756.29	26123.89
756.71	26320.49
757.12	25984.63
757.54	25841.27
757.96	26074.74
758.37	25851.51
758.79	25861.75
759.20	25681.53
759.62	25933.43
760.03	25589.37
760.45	25095.81
760.87	26029.68
761.28	25491.07
761.70	25286.27
762.11	25366.14
762.53	25579.13
762.94	25329.28
763.36	25386.62
763.78	25235.07
764.19	25376.38
764.61	25013.89
765.02	25177.73
765.44	24999.55
765.85	25306.75
766.27	25413.24
766.68	25296.51
767.10	24788.61
767.51	24987.27
767.93	24997.51
768.34	25214.59
768.76	24964.74
769.18	24505.99
769.59	25134.72
770.01	25190.02
770.42	25005.70
770.84	25099.91
771.25	24577.67
771.67	24411.79
772.08	24477.32
772.50	24493.71
772.91	24137.36
773.33	24592.01
773.74	24323.72
774.16	23891.60
774.57	23963.28
774.99	23983.76
775.40	23897.75
775.81	24051.34
776.23	23662.23
776.64	23543.45
777.06	23991.95
777.47	23453.34
777.89	23402.14
778.30	23207.58
778.72	23293.60
779.13	23527.06
779.55	23049.89
779.96	23060.13
780.38	22783.65
780.79	22728.36
781.20	22515.37
781.62	22617.77
782.03	22752.93
782.45	22394.54
782.86	22275.76
783.28	22318.76
783.69	22361.77
784.10	22335.15
784.52	21593.78
784.93	22226.60
785.35	21767.86
785.76	22087.34
786.18	22101.68
786.59	22032.05
787.00	21655.22
787.42	22009.52
787.83	21950.13
788.25	21644.98
788.66	21413.56
789.07	21597.88
789.49	21257.92
789.90	21728.95
790.32	21241.53
790.73	21106.37
791.14	21001.92
791.56	21219.00
791.97	20913.86
792.38	21069.50
792.80	20623.05
793.21	20864.71
793.62	20520.65
794.04	20764.36
794.45	20481.74
794.87	20592.33
795.28	20473.54
795.69	20684.48
796.11	20272.84
796.52	20432.58
796.93	20215.50
797.35	20444.87
797.76	20082.38
798.17	19816.15
798.59	19900.11
799.00	19857.11
799.41	19777.23
799.83	19529.43
800.24	19211.99
800.65	19263.19
801.07	19201.76
801.48	19168.99
801.89	18996.96
802.31	19390.17
802.72	19240.67
803.13	19039.97
803.54	18800.35
803.96	18867.94
804.37	18661.09
804.78	19039.97
805.20	18849.50
805.61	18587.36
806.02	18548.45
806.43	18745.06
806.85	18544.36
807.26	18757.35
807.67	18544.36
808.09	18745.06
808.50	18700.00
808.91	18165.48
809.32	18206.44
809.74	18781.92
810.15	18261.74
810.56	18058.99
810.97	17751.79
811.39	18112.24
811.80	17792.75
812.21	18013.93
812.62	17946.35
813.04	18118.38
813.45	17288.95
813.86	17676.02
814.27	17567.48
814.68	17422.07
815.10	17405.69
815.51	17178.36
815.92	17309.43
816.33	17098.49
816.75	17096.44
817.16	17438.45
817.57	16787.20
817.98	17098.49
818.39	17037.05
818.81	17125.11
819.22	16514.82
819.63	16725.76
820.04	16633.60
820.45	16934.65
820.87	16705.28
821.28	16172.81
821.69	16729.86
822.10	16305.93
822.51	16523.01
822.92	16568.07
823.34	16158.47
823.75	16221.96
824.16	15802.13
824.57	16115.47
824.98	15744.78
825.39	15927.05
825.81	15656.72
826.22	15351.57
826.63	15638.29
827.04	15636.24
827.45	15765.26
827.86	15605.52
828.28	15310.61
828.69	15402.77
829.10	15370.01
829.51	15396.63
829.92	14909.21
830.33	14921.50
830.74	14622.50
831.15	15097.63
831.57	14837.53
831.98	14837.53
832.39	14573.35
832.80	14364.45
833.21	14708.51
833.62	14663.46
834.03	13967.15
834.44	14102.31
834.85	13946.67
835.26	14067.50
835.68	14102.31
836.09	14145.32
836.50	13989.67
836.91	14401.32
837.32	13928.24
837.73	14108.46
838.14	13981.48
838.55	13516.59
838.96	13754.16
839.37	13705.01
839.78	13616.94
840.19	13682.48
840.60	13451.06
841.02	13694.77
841.43	13045.56
841.84	13588.27
842.25	13373.24
842.66	13600.56
843.07	13231.93
843.48	13391.67
843.89	13156.15
844.30	13209.40
844.71	12592.96
845.12	13115.19
845.53	13027.13
845.94	12869.44
846.35	12771.13
846.76	12726.08
847.17	12635.97
847.58	12967.74
847.99	12496.71
848.40	12984.12
848.81	12658.49
849.22	12818.24
849.63	12478.27
850.04	12461.89
850.45	12361.54
850.86	12504.90
851.27	12379.97
851.68	12302.15
852.09	12390.21
852.50	12285.76
852.91	12384.07
853.32	12265.28
853.73	12224.33
854.14	12062.54
854.55	11894.60
854.96	11984.71
855.37	11855.69
855.78	11845.45
856.19	11824.97
856.60	11657.04
857.01	11587.41
857.42	11796.30
857.83	11294.55
858.24	11636.56
858.64	11419.47
859.05	11736.91
859.46	11235.16
859.87	11654.99
860.28	11327.32
860.69	11579.22
861.10	10983.26
861.51	11183.96
861.92	11052.89
862.33	11585.36
862.74	11093.85
863.15	11390.80
863.56	10932.06
863.96	10993.50
864.37	10786.65
864.78	10676.06
865.19	10723.16
865.60	10757.98
866.01	10485.60
866.42	10596.19
866.83	10288.99
867.24	10479.46
867.65	10108.77
868.05	10495.84
868.46	10248.04
868.87	10348.39
869.28	10102.63
869.69	10239.84
870.10	10053.48
870.51	10051.43
870.92	10014.57
871.32	10006.38
871.73	9979.75
872.14	9854.83
872.55	9547.63
872.96	9846.63
873.37	9357.17
873.77	9434.99
874.18	9353.07
874.59	9299.83
875.00	9086.84
875.41	9453.42
875.82	8955.77
876.22	9258.87
876.63	8867.70
877.04	9174.90
877.45	8802.17
877.86	9187.19
878.27	8988.53
878.67	8990.58
879.08	8974.20
879.49	8851.32
879.90	8494.97
880.31	8900.47
880.71	8513.41
881.12	8757.11
881.53	8699.77
881.94	8374.14
882.35	8177.54
882.75	8361.86
883.16	8173.44
883.57	8234.88
883.98	8089.48
884.38	8054.66
884.79	7919.50
885.20	8421.25
885.61	8028.04
886.02	8245.12
886.42	8275.84
886.83	8193.92
887.24	7679.88
887.65	7880.58
888.05	7753.61
888.46	7692.17
888.87	7575.44
889.28	7626.64
889.68	7839.62
890.09	7894.92
890.50	7675.79
890.91	7925.64
891.31	7708.55
891.72	7636.88
892.13	7509.90
892.53	7620.49
892.94	7718.79
893.35	7671.69
893.76	7466.89
894.16	7395.22
894.57	7276.43
894.98	7423.89
895.38	7296.91
895.79	7585.68
896.20	7202.71
896.61	7313.30
897.01	7065.49
897.42	7098.26
897.83	7030.68
898.23	7147.41
898.64	7210.90
899.05	7309.20
899.45	6756.25
899.86	7028.63
900.27	6934.42
900.67	7047.06
901.08	6911.89
901.49	6743.96
901.89	6692.76
902.30	6754.20
902.71	6588.32
903.11	6741.91
903.52	6602.65
903.93	6719.39
904.33	6543.26
904.74	6655.90
905.15	6270.88
905.55	6510.49
905.96	6537.12
906.36	6467.49
906.77	6365.09
907.18	6664.09
907.58	6399.90
907.99	6473.63
908.40	6393.76
908.80	6375.33
909.21	6096.80
909.61	6346.66
910.02	6231.97
910.43	6418.33
910.83	6061.99
911.24	6234.02
911.64	6002.60
912.05	6188.96
912.46	5947.30
912.86	6311.84
913.27	5992.36
913.67	6246.30
914.08	5906.34
914.48	6107.04
914.89	5709.74
915.30	6201.25
915.70	5750.70
916.11	5767.08
916.51	5705.64
916.92	5701.54
917.32	5502.89
917.73	5889.96
918.14	5758.89
918.54	5803.94
918.95	5459.88
919.35	5623.72
919.76	5478.32
920.16	5543.85
920.57	5390.25
920.97	5490.60
921.38	5167.03
921.78	5396.40
922.19	5017.52
922.59	5318.57
923.00	5175.22
923.41	5085.11
923.81	4941.75
924.22	5164.98
924.62	4659.13
925.03	4978.61
925.43	4571.07
925.84	4757.43
926.24	4503.48
926.65	4501.44
927.05	4259.78
927.46	4388.80
927.86	4261.82
928.27	4278.21
928.67	3878.85
929.08	3934.15
929.48	3731.40
929.88	3897.28
930.29	3565.51
930.69	3401.68
931.10	3418.06
931.50	3272.65
931.91	3090.38
932.31	3028.95
932.72	2824.15
933.12	2836.44
933.53	2400.22
933.93	2365.40
934.34	2201.57
934.74	2244.57
935.14	1910.75
935.55	1910.75
935.95	1501.16
936.36	1527.78
936.76	1427.43
937.17	1415.15
937.57	1148.91
937.97	1159.15
938.38	833.52
938.78	890.87
939.19	704.50
939.59	735.22
940.00	690.17
940.40	511.99
940.80	444.41
941.21	405.50
941.61	321.53
942.02	327.67
942.42	305.15
942.82	167.93
943.23	272.38
943.63	313.34
944.04	212.99
944.44	182.27
944.84	159.74
945.25	22.53
945.65	206.84
946.05	153.60
946.46	159.74
946.86	116.73
947.26	133.12
947.67	190.46
948.07	167.93
948.48	172.03
948.88	43.01
949.28	92.16
949.69	153.60
950.09	124.93
950.49	104.45
950.90	88.06
951.30	26.62
951.70	92.16
952.11	196.61
952.51	10.24
952.91	86.01
953.32	141.31
953.72	122.88
954.12	153.60
954.53	102.40
954.93	151.55
955.33	278.52
955.74	200.70
956.14	59.39
956.54	174.08
956.94	159.74
957.35	217.08
957.75	157.69
958.15	106.49
958.56	169.98
958.96	147.45
959.36	141.31
959.76	161.79
960.17	167.93
960.57	141.31
960.97	124.93
961.38	194.56
961.78	180.22
962.18	124.93
962.58	176.13
962.99	186.37
963.39	163.84
963.79	155.65
964.19	155.65
964.60	151.55
965.00	139.26
965.40	163.84
965.80	106.49
966.21	124.93
966.61	131.07
967.01	223.23
967.41	133.12
967.81	59.39
968.22	116.73
968.62	161.79
969.02	112.64
969.42	196.61
969.83	239.61
970.23	190.46
970.63	61.44
971.03	92.16
971.43	167.93
971.84	206.84
972.24	135.17
972.64	157.69
973.04	55.30
973.44	143.36
973.85	53.25
974.25	176.13
974.65	169.98
975.05	141.31
975.45	100.35
975.85	169.98
976.26	114.69
976.66	202.75
977.06	131.07
977.46	116.73
977.86	159.74
978.26	225.28
978.67	110.59
979.07	106.49
979.47	172.03
979.87	124.93
980.27	59.39
980.67	141.31
981.07	104.45
981.48	153.60
981.88	67.58
982.28	51.20
982.68	4.10
983.08	141.31
983.48	149.50
983.88	178.17
984.29	116.73
984.69	-24.58
985.09	106.49
985.49	174.08
985.89	53.25
986.29	172.03
986.69	69.63
987.09	153.60
987.49	167.93
987.89	124.93
988.30	135.17
988.70	219.13
989.10	116.73
989.50	98.30
989.90	133.12
990.30	147.45
990.70	147.45
991.10	75.77
991.50	135.17
991.90	108.54
992.30	124.93
992.70	153.60
993.10	88.06
993.50	190.46
993.91	172.03
994.31	104.45
994.71	79.87
995.11	147.45
995.51	122.88
995.91	137.21
996.31	108.54
996.71	143.36
997.11	2.05
997.51	135.17
997.91	36.86
998.31	110.59
998.71	106.49
999.11	163.84
999.51	118.78
999.91	116.73
1000.31	26.62
1000.71	108.54
1001.11	79.87
1001.51	163.84
1001.91	53.25
1002.31	61.44
1002.71	90.11
1003.11	61.44
1003.51	63.49
1003.91	133.12
1004.31	137.21
1004.71	161.79
1005.11	-8.19
1005.51	86.01
1005.91	77.82
1006.31	57.34
1006.71	77.82
1007.11	28.67
1007.51	83.97
1007.91	67.58
1008.31	-4.10
1008.71	16.38
1009.11	77.82
1009.51	86.01
1009.91	77.82
1010.30	16.38
1010.70	-4.10
1011.10	182.27
1011.50	49.15
1011.90	40.96
1012.30	51.20
1012.70	65.54
1013.10	90.11
1013.50	38.91
1013.90	167.93
1014.30	51.20
1014.70	43.01
1015.10	55.30
1015.50	55.30
1015.89	133.12
1016.29	92.16
1016.69	94.21
1017.09	100.35
1017.49	40.96
1017.89	38.91
1018.29	81.92
1018.69	71.68
1019.09	139.26
1019.48	83.97
1019.88	34.82
1020.28	18.43
1020.68	57.34
1021.08	53.25
1021.48	75.77
1021.88	75.77
1022.28	18.43
1022.67	6.14
1023.07	34.82
1023.47	26.62
1023.87	34.82
1024.27	133.12
1024.67	118.78
1025.07	67.58
1025.46	24.58
1025.86	-69.63
1026.26	20.48
1026.66	-36.86
1027.06	47.10
1027.46	22.53
1027.85	18.43
1028.25	59.39
1028.65	53.25
1029.05	-67.58
1029.45	14.34
1029.85	-18.43
1030.24	104.45
1030.64	-18.43
1031.04	75.77
1031.44	-45.06
1031.84	69.63
1032.23	40.96
1032.63	6.14
1033.03	94.21
1033.43	24.58
1033.83	40.96
1034.22	77.82
1034.62	141.31
1035.02	4.10
1035.42	34.82
1035.81	90.11
1036.21	73.73
1036.61	8.19
1037.01	65.53
1037.41	8.19
1037.80	0.00
1038.20	4.10
1038.60	38.91
1039.00	12.29
1039.39	86.01
1039.79	63.49
1040.19	-34.82
1040.59	4.10
1040.98	-61.44
1041.38	-36.86
1041.78	40.96
1042.17	63.49
1042.57	77.82
1042.97	79.87
1043.37	69.63
1043.76	73.73
1044.16	-67.58
1044.56	-16.38
1044.96	-38.91
1045.35	169.98
1045.75	6.14
1046.15	24.58
1046.54	147.45
1046.94	6.14
1047.34	67.58
1047.73	2.05
1048.13	12.29
1048.53	34.82
1048.93	22.53
1049.32	59.39
1049.72	-36.86
1050.12	57.34
1050.51	43.01
1050.91	8.19
1051.31	26.62
1051.70	40.96
1052.10	-4.10
1052.50	75.77
1052.89	22.53
1053.29	-20.48
1053.69	14.34
1054.08	79.87
1054.48	65.54
1054.87	38.91
1055.27	51.20
1055.67	16.38
1056.06	45.06
1056.46	75.77
1056.86	14.34
1057.25	98.30
1057.65	53.25
1058.05	45.06
1058.44	43.01
1058.84	14.34
1059.23	43.01
1059.63	34.82
1060.03	38.91
1060.42	45.06
1060.82	131.07
1061.21	131.07
1061.61	65.54
1062.01	-81.92
1062.40	26.62
1062.80	73.73
1063.19	51.20
1063.59	-79.87
1063.99	34.82
1064.38	49.15
1064.78	59.39
1065.17	-49.15
1065.57	8.19
1065.97	-6.14
1066.36	45.06
1066.76	75.77
1067.15	26.62
1067.55	-28.67
1067.94	90.11
1068.34	43.01
1068.73	-22.53
1069.13	-59.39
1069.53	26.62
1069.92	36.86
1070.32	24.58
1070.71	16.38
1071.11	12.29
1071.50	45.06
1071.90	2.05
1072.29	53.25
1072.69	71.68
1073.08	-10.24
1073.48	-10.24
1073.87	8.19
1074.27	4.10
1074.66	-55.30
1075.06	96.25
1075.45	51.20
1075.85	38.91
1076.24	-24.58
1076.64	10.24
1077.03	20.48
1077.43	-6.14
1077.82	-34.82
1078.22	34.82
1078.61	53.25
1079.01	0.00
1079.40	-38.91
1079.80	-61.44
1080.19	-36.86
1080.59	20.48
1080.98	8.19
1081.38	53.25
1081.77	26.62
1082.17	81.92
1082.56	-112.64
1082.96	-30.72
1083.35	10.24
1083.75	-69.63
1084.14	-69.63
1084.53	104.45
1084.93	-22.53
1085.32	-30.72
1085.72	106.49
1086.11	45.06
1086.51	45.06
1086.90	-6.14
1087.30	34.82
1087.69	-43.01
1088.08	-6.14
1088.48	45.06
1088.87	12.29
1089.27	47.10
1089.66	-30.72
1090.05	10.24
1090.45	-2.05
1090.84	0.00
1091.24	2.05
1091.63	69.63
1092.02	88.06
1092.42	108.54
1092.81	65.53
1093.21	38.91
1093.60	69.63
1093.99	157.69
1094.39	22.53
1094.78	8.19
1095.18	36.86
1095.57	-28.67
1095.96	-8.19
1096.36	-49.15
1096.75	12.29
1097.14	43.01
1097.54	-53.25
1097.93	20.48
1098.32	53.25
1098.72	12.29
1099.11	12.29
1099.50	55.30
1099.90	-10.24
1100.29	75.77
1100.69	16.38
1101.08	26.62
1101.47	-63.49
1101.87	90.11
1102.26	38.91
1102.65	38.91
1103.04	-4.10
1103.44	26.62
1103.83	-49.15
1104.22	-43.01
1104.62	59.39
1105.01	-40.96
1105.40	100.35
1105.80	43.01
1106.19	-2.05
1106.58	-16.38
1106.98	83.97
1107.37	22.53
1107.76	36.86
1108.15	153.60
1108.55	18.43
1108.94	24.58
1109.33	38.91
1109.73	112.64
1110.12	10.24
1110.51	69.63
1110.90	40.96
1111.30	-36.86
1111.69	18.43
1112.08	40.96
1112.47	141.31
1112.87	26.62
1113.26	-10.24
1113.65	47.10
1114.04	10.24
1114.44	28.67
1114.83	16.38
1115.22	-65.54
1115.61	73.73
1116.01	79.87
1116.40	104.45
1116.79	155.65
1117.18	-14.34
1117.58	-57.34
1117.97	-2.05
1118.36	22.53
1118.75	59.39
1119.14	-20.48
1119.54	45.06
1119.93	6.14
1120.32	-2.05
1120.71	34.82
1121.10	47.10
1121.50	51.20
1121.89	26.62
1122.28	110.59
1122.67	-16.38
1123.06	38.91
1123.46	-2.05
1123.85	-49.15
1124.24	81.92
1124.63	-34.82
1125.02	59.39
1125.41	61.44
1125.81	-133.12
1126.20	55.30
1126.59	-36.86
1126.98	-63.49
1127.37	-32.77
1127.76	-18.43
1128.16	53.25
1128.55	53.25
1128.94	40.96
1129.33	143.36
1129.72	24.58
1130.11	-36.86
1130.50	4.10
1130.90	-6.14
1131.29	49.15
1131.68	-24.58
1132.07	-43.01
1132.46	81.92
1132.85	71.68
1133.24	75.77
1133.63	36.86
1134.03	51.20
1134.42	131.07
1134.81	24.58
1135.20	-32.77
1135.59	2.05
1135.98	-30.72
1136.37	40.96
1136.76	-40.96
1137.15	26.62
1137.54	4.10
1137.94	98.30
1138.33	-26.62
1138.72	24.58
1139.11	-34.82
1139.50	6.14
1139.89	2.05
1140.28	4.10
1140.67	12.29
1141.06	49.15
1141.45	28.67
1141.84	4.10
1142.23	-38.91
1142.62	-22.53
1143.01	4.10
1143.40	45.06
1143.80	61.44
1144.19	0.00
1144.58	59.39
1144.97	26.62
1145.36	28.67
1145.75	106.49
1146.14	63.49
1146.53	28.67
1146.92	-4.10
1147.31	59.39
1147.70	-4.10
1148.09	92.16
1148.48	-61.44
1148.87	16.38
1149.26	122.88
1149.65	49.15
1150.04	40.96
1150.43	32.77
1150.82	10.24
1151.21	100.35
1151.60	12.29
1151.99	36.86
1152.38	-2.05
1152.77	-22.53
1153.16	40.96
1153.55	-14.34
1153.94	-90.11
1154.33	12.29
1154.72	-18.43
1155.11	38.91
1155.50	61.44
1155.89	67.58
1156.28	73.73
1156.67	126.97
1157.06	71.68
1157.44	98.30
1157.83	120.83
1158.22	16.38
1158.61	61.44
1159.00	-4.10
1159.39	14.34
1159.78	-73.73
1160.17	40.96
1160.56	16.38
1160.95	55.30
1161.34	63.49
1161.73	-61.44
1162.12	-49.15
1162.51	-2.05
1162.90	10.24
1163.28	-4.10
1163.67	32.77
1164.06	18.43
1164.45	8.19
1164.84	69.63
1165.23	20.48
1165.62	34.82
1166.01	-8.19
1166.40	67.58
1166.79	122.88
1167.17	49.15
1167.56	55.30
1167.95	-6.14
1168.34	18.43
1168.73	14.34
1169.12	79.87
1169.51	63.49
1169.90	36.86
1170.28	-10.24
1170.67	90.11
1171.06	53.25
1171.45	6.14
1171.84	71.68
1172.23	24.58
1172.62	-53.25
1173.00	-81.92
1173.39	24.58
1173.78	73.73
1174.17	94.21
1174.56	-4.10
1174.95	77.82
1175.33	-12.29
1175.72	-49.15
1176.11	110.59
1176.50	-49.15
1176.89	112.64
1177.28	38.91
1177.66	40.96
1178.05	4.10
1178.44	61.44
1178.83	169.98
1179.22	73.73
1179.60	53.25
1179.99	-14.34
1180.38	38.91
1180.77	77.82
1181.16	4.10
1181.54	40.96
1181.93	90.11
1182.32	-28.67
1182.71	90.11
1183.09	49.15
1183.48	-45.06
1183.87	131.07
1184.26	65.54
1184.65	49.15
1185.03	-4.10
1185.42	114.69
1185.81	147.45
1186.20	24.58
1186.58	38.91
1186.97	14.34
1187.36	45.06
1187.75	20.48
1188.13	90.11
1188.52	79.87
1188.91	43.01
1189.30	26.62
1189.68	69.63
1190.07	-8.19
1190.46	30.72
1190.84	-4.10
1191.23	47.10
1191.62	83.97
1192.01	12.29
1192.39	32.77
1192.78	81.92
1193.17	22.53
1193.55	24.58
1193.94	83.97
1194.33	188.41
1194.72	4.10
1195.10	178.17
1195.49	153.60
1195.88	104.45
1196.26	75.77
1196.65	-34.82
1197.04	-47.10
1197.42	67.58
1197.81	92.16
1198.20	0.00
1198.58	6.14
1198.97	-24.58
1199.36	8.19
1199.74	18.43
1200.13	-30.72
1200.52	88.06
1200.90	6.14
1201.29	49.15
1201.68	47.10
1202.06	8.19
1202.45	32.77
1202.84	86.01
1203.22	104.45
1203.61	114.69
1203.99	20.48
1204.38	51.20
1204.77	51.20
1205.15	122.88
1205.54	-38.91
1205.93	-2.05
1206.31	8.19
1206.70	-4.10
1207.08	36.86
1207.47	6.14
1207.86	79.87
1208.24	79.87
1208.63	-16.38
1209.01	34.82
1209.40	6.14
1209.79	16.38
1210.17	79.87
1210.56	38.91
1210.94	67.58
1211.33	110.59
1211.72	79.87
1212.10	24.58
1212.49	98.30
1212.87	94.21
1213.26	83.97
1213.64	32.77
1214.03	77.82
1214.42	73.73
1214.80	139.26
1215.19	161.79
1215.57	26.62
1215.96	112.64
1216.34	-79.87
1216.73	51.20
1217.11	0.00
1217.50	100.35
1217.89	34.82
1218.27	36.86
1218.66	61.44
1219.04	75.77
1219.43	30.72
1219.81	65.54
1220.20	26.62
1220.58	6.14
1220.97	92.16
1221.35	49.15
1221.74	65.54
1222.12	14.34
1222.51	-20.48
1222.89	61.44
1223.28	2.05
1223.66	124.93
1224.05	38.91
1224.43	86.01
1224.82	51.20
1225.20	28.67
1225.59	36.86
1225.97	-12.29
1226.36	100.35
1226.74	8.19
1227.13	4.10
1227.51	182.27
1227.90	-24.58
1228.28	88.06
1228.66	43.01
1229.05	47.10
1229.43	28.67
1229.82	118.78
1230.20	100.35
1230.59	53.25
1230.97	-8.19
1231.36	34.82
1231.74	139.26
1232.13	106.49
1232.51	53.25
1232.89	108.54
1233.28	0.00
1233.66	38.91
1234.05	47.10
1234.43	90.11
1234.82	57.34
1235.20	69.63
1235.58	67.58
1235.97	114.69
1236.35	116.73
1236.74	120.83
1237.12	36.86
1237.50	124.93
1237.89	-57.34
1238.27	-34.82
1238.66	165.89
1239.04	122.88
1239.42	73.73
1239.81	92.16
1240.19	-10.24
1240.58	63.49
1240.96	112.64
1241.34	120.83
1241.73	104.45
1242.11	120.83
1242.49	71.68
1242.88	92.16
1243.26	8.19
1243.64	96.25
1244.03	104.45
1244.41	63.49
1244.80	36.86
1245.18	155.65
1245.56	12.29
1245.95	120.83
1246.33	92.16
1246.71	110.59
1247.10	-38.91
1247.48	79.87
1247.86	36.86
1248.25	133.12
1248.63	30.72
1249.01	131.07
1249.40	2.05
1249.78	79.87
1250.16	108.54
1250.55	-20.48
1250.93	151.55
1251.31	47.10
1251.69	6.14
1252.08	57.34
1252.46	149.50
1252.84	57.34
1253.23	106.49
1253.61	81.92
1253.99	73.73
1254.37	116.73
1254.76	12.29
1255.14	106.49
1255.52	36.86
1255.91	59.39
1256.29	57.34
1256.67	122.88
1257.05	106.49
1257.44	120.83
1257.82	88.06
1258.20	-40.96
1258.58	40.96
1258.97	137.21
1259.35	126.97
1259.73	57.34
1260.11	178.17
1260.50	6.14
1260.88	63.49
1261.26	108.54
1261.64	77.82
1262.03	157.69
1262.41	79.87
1262.79	90.11
1263.17	69.63
1263.56	198.65
1263.94	65.53
1264.32	88.06
1264.70	24.58
1265.08	90.11
1265.47	38.91
1265.85	131.07
1266.23	38.91
1266.61	47.10
1266.99	149.50
1267.38	176.13
1267.76	26.62
1268.14	126.97
1268.52	141.31
1268.90	122.88
1269.29	108.54
1269.67	137.21
1270.05	-36.86
1270.43	45.06
1270.81	147.45
1271.19	-67.58
1271.58	22.53
1271.96	86.01
1272.34	53.25
1272.72	75.77
1273.10	120.83
1273.48	126.97
1273.86	-94.21
1274.25	96.25
1274.63	61.44
1275.01	10.24
1275.39	147.45
1275.77	34.82
1276.15	108.54
1276.53	75.77
1276.92	57.34
1277.30	92.16
1277.68	49.15
1278.06	83.97
1278.44	118.78
1278.82	145.41
1279.20	102.40
1279.58	10.24
1279.97	98.30
1280.35	71.68
1280.73	12.29
1281.11	270.33
1281.49	98.30
1281.87	184.32
1282.25	67.58
1282.63	40.96
1283.01	108.54
1283.39	47.10
1283.77	83.97
1284.16	159.74
1284.54	55.30
1284.92	202.75
1285.30	14.34
1285.68	108.54
1286.06	61.44
1286.44	243.71
1286.82	67.58
1287.20	38.91
1287.58	141.31
1287.96	65.54
1288.34	86.01
1288.72	145.41
1289.10	122.88
1289.48	118.78
1289.86	40.96
1290.24	133.12
1290.62	59.39
1291.00	86.01
1291.38	100.35
1291.77	59.39
1292.15	174.08
1292.53	-10.24
1292.91	30.72
1293.29	200.70
1293.67	102.40
1294.05	79.87
1294.43	233.47
1294.81	30.72
1295.19	14.34
1295.57	22.53
1295.95	45.06
1296.33	71.68
1296.71	135.17
1297.09	141.31
1297.47	43.01
1297.85	90.11
1298.23	65.54
1298.60	126.97
1298.98	79.87
1299.36	149.50
1299.74	190.46
1300.12	133.12
1300.50	98.30
1300.88	59.39
1301.26	190.46
1301.64	104.45
1302.02	198.65
1302.40	180.22
1302.78	86.01
1303.16	155.65
1303.54	102.40
1303.92	88.06
1304.30	161.79
1304.68	124.93
1305.06	135.17
1305.44	106.49
1305.82	135.17
1306.19	79.87
1306.57	61.44
1306.95	120.83
1307.33	57.34
1307.71	126.97
1308.09	155.65
1308.47	145.41
1308.85	124.93
1309.23	49.15
1309.61	94.21
1309.99	149.50
1310.36	172.03
1310.74	47.10
1311.12	106.49
1311.50	194.56
1311.88	180.22
1312.26	108.54
1312.64	53.25
1313.02	26.62
1313.39	147.45
1313.77	198.65
1314.15	55.30
1314.53	143.36
1314.91	116.73
1315.29	223.23
1315.67	192.51
1316.05	86.01
1316.42	116.73
1316.80	176.13
1317.18	143.36
1317.56	237.56
1317.94	147.45
1318.32	108.54
1318.69	102.40
1319.07	116.73
1319.45	120.83
1319.83	174.08
1320.21	149.50
1320.59	133.12
1320.96	108.54
1321.34	69.63
1321.72	92.16
1322.10	208.89
1322.48	59.39
1322.85	86.01
1323.23	75.77
1323.61	184.32
1323.99	92.16
1324.37	137.21
1324.74	96.25
1325.12	100.35
1325.50	141.31
1325.88	212.99
1326.26	77.82
1326.63	104.45
1327.01	45.06
1327.39	116.73
1327.77	104.45
1328.14	83.97
1328.52	102.40
1328.90	239.61
1329.28	157.69
1329.66	196.60
1330.03	143.36
1330.41	247.80
1330.79	129.02
1331.17	43.01
1331.54	12.29
1331.92	194.56
1332.30	69.63
1332.67	165.89
1333.05	161.79
1333.43	174.08
1333.81	124.93
1334.18	219.13
1334.56	83.97
1334.94	151.55
1335.32	94.21
1335.69	215.04
1336.07	178.17
1336.45	223.23
1336.82	149.50
1337.20	151.55
1337.58	174.08
1337.96	45.06
1338.33	126.97
1338.71	159.74
1339.09	122.88
1339.46	75.77
1339.84	53.25
1340.22	133.12
1340.59	147.45
1340.97	157.69
1341.35	149.50
1341.72	200.70
1342.10	83.97
1342.48	149.50
1342.85	143.36
1343.23	163.84
1343.61	106.49
1343.98	151.55
1344.36	10.24
1344.74	92.16
1345.11	88.06
1345.49	145.41
1345.87	198.65
1346.24	198.65
1346.62	182.27
1347.00	139.26
1347.37	100.35
1347.75	165.89
1348.12	204.80
1348.50	163.84
1348.88	137.21
1349.25	155.65
1349.63	159.74
1350.00	145.41
1350.38	26.62
1350.76	59.39
1351.13	143.36
1351.51	165.89
1351.89	86.01
1352.26	79.87
1352.64	182.27
1353.01	114.69
1353.39	139.26
1353.76	167.93
1354.14	133.12
1354.52	106.49
1354.89	133.12
1355.27	215.04
1355.64	116.73
1356.02	137.21
1356.40	79.87
1356.77	129.02
1357.15	198.65
1357.52	143.36
1357.90	141.31
1358.27	176.13
1358.65	145.41
1359.02	112.64
1359.40	133.12
1359.78	163.84
1360.15	63.49
1360.53	161.79
1360.90	196.61
1361.28	206.84
1361.65	108.54
1362.03	176.13
1362.40	34.82
1362.78	59.39
1363.15	280.57
1363.53	188.41
1363.90	190.46
1364.28	225.28
1364.65	86.01
1365.03	137.21
1365.40	182.27
1365.78	108.54
1366.15	147.45
1366.53	122.88
1366.90	153.60
1367.28	208.89
1367.65	81.92
1368.03	188.41
1368.40	153.60
1368.78	180.22
1369.15	172.03
1369.53	122.88
1369.90	217.08
1370.28	200.70
1370.65	153.60
1371.03	137.21
1371.40	137.21
1371.78	192.51
1372.15	51.20
1372.53	196.61
1372.90	212.99
1373.27	176.13
1373.65	151.55
1374.02	112.64
1374.40	249.85
1374.77	26.62
1375.15	202.75
1375.52	151.55
1375.89	122.88
1376.27	182.27
1376.64	210.94
1377.02	178.17
1377.39	174.08
1377.77	192.51
1378.14	145.41
1378.51	198.65
1378.89	122.88
1379.26	98.30
1379.64	190.46
1380.01	208.89
1380.38	221.18
1380.76	96.25
1381.13	137.21
1381.51	215.04
1381.88	172.03
1382.25	227.32
1382.63	208.89
1383.00	178.17
1383.38	86.01
1383.75	69.63
1384.12	247.80
1384.50	155.65
1384.87	135.17
1385.24	235.52
1385.62	235.52
1385.99	116.73
1386.36	139.26
1386.74	96.25
1387.11	88.06
1387.49	169.98
1387.86	151.55
1388.23	143.36
1388.61	122.88
1388.98	241.66
1389.35	198.65
1389.73	129.02
1390.10	133.12
1390.47	157.69
1390.85	159.74
1391.22	94.21
1391.59	184.32
1391.96	233.47
1392.34	169.98
1392.71	47.10
1393.08	157.69
1393.46	194.56
1393.83	176.13
1394.20	192.51
1394.58	100.35
1394.95	233.47
1395.32	100.35
1395.70	34.82
1396.07	147.45
1396.44	61.44
1396.81	202.75
1397.19	137.21
1397.56	110.59
1397.93	270.33
1398.30	120.83
1398.68	194.56
1399.05	149.50
1399.42	172.03
1399.80	163.84
1400.17	212.99
1400.54	131.07
1400.91	186.37
1401.29	196.61
1401.66	159.74
1402.03	92.16
1402.40	147.45
1402.78	165.89
1403.15	98.30
1403.52	98.30
1403.89	235.52
1404.26	135.17
1404.64	159.74
1405.01	104.45
1405.38	69.63
1405.75	139.26
1406.13	176.13
1406.50	135.17
1406.87	92.16
1407.24	217.08
1407.61	155.65
1407.99	235.52
1408.36	174.08
1408.73	161.79
1409.10	184.32
1409.47	100.35
1409.85	108.54
1410.22	116.73
1410.59	126.97
1410.96	215.04
1411.33	157.69
1411.70	104.45
1412.08	102.40
1412.45	59.39
1412.82	118.78
1413.19	49.15
1413.56	159.74
1413.93	161.79
1414.31	88.06
1414.68	59.39
1415.05	180.22
1415.42	81.92
1415.79	174.08
1416.16	108.54
1416.54	196.61
1416.91	176.13
1417.28	161.79
1417.65	81.92
1418.02	180.22
1418.39	217.08
1418.76	53.25
1419.13	120.83
1419.51	137.21
1419.88	92.16
1420.25	151.55
1420.62	106.49
1420.99	30.72
1421.36	92.16
1421.73	169.98
1422.10	57.34
1422.47	118.78
1422.85	204.80
1423.22	182.27
1423.59	151.55
1423.96	147.45
1424.33	83.97
1424.70	200.70
1425.07	18.43
1425.44	204.80
1425.81	141.31
1426.18	124.93
1426.55	190.46
1426.92	122.88
1427.29	147.45
1427.67	116.73
1428.04	94.21
1428.41	126.97
1428.78	137.21
1429.15	126.97
1429.52	120.83
1429.89	153.60
1430.26	131.07
1430.63	145.41
1431.00	65.53
1431.37	86.01
1431.74	83.97
1432.11	98.30
1432.48	135.17
1432.85	143.36
1433.22	75.77
1433.59	133.12
1433.96	47.10
1434.33	219.13
1434.70	55.30
1435.07	157.69
1435.44	108.54
1435.81	237.56
1436.18	122.88
1436.55	108.54
1436.92	184.32
1437.29	112.64
1437.66	165.89
1438.03	120.83
1438.40	81.92
1438.77	96.25
1439.14	133.12
1439.51	30.72
1439.88	139.26
1440.25	188.41
1440.62	43.01
1440.99	120.83
1441.36	149.50
1441.73	71.68
1442.10	126.97
1442.47	133.12
1442.84	108.54
1443.21	190.46
1443.58	131.07
1443.95	63.49
1444.32	83.97
1444.68	2.05
1445.05	98.30
1445.42	135.17
1445.79	45.06
1446.16	149.50
1446.53	135.17
1446.90	110.59
1447.27	26.62
1447.64	161.79
1448.01	118.78
1448.38	38.91
1448.75	32.77
1449.12	167.93
1449.48	45.06
1449.85	49.15
1450.22	49.15
1450.59	86.01
1450.96	51.20
1451.33	108.54
1451.70	73.73
1452.07	38.91
1452.44	104.45
1452.80	22.53
1453.17	49.15
1453.54	0.00
1453.91	6.14
1454.28	118.78
1454.65	137.21
1455.02	133.12
1455.39	61.44
1455.75	-40.96
1456.12	108.54
1456.49	12.29
1456.86	73.73
1457.23	131.07
1457.60	100.35
1457.96	161.79
1458.33	75.77
1458.70	102.40
1459.07	38.91
1459.44	131.07
1459.81	73.73
1460.17	104.45
1460.54	6.14
1460.91	63.49
1461.28	38.91
1461.65	149.50
1462.02	79.87
1462.38	26.62
1462.75	55.30
1463.12	49.15
1463.49	40.96
1463.86	26.62
1464.22	81.92
1464.59	73.73
1464.96	86.01
1465.33	126.97
1465.70	16.38
1466.06	83.97
1466.43	-6.14
1466.80	96.25
1467.17	53.25
1467.53	67.58
1467.90	75.77
1468.27	96.25
1468.64	20.48
1469.01	69.63
1469.37	20.48
1469.74	6.14
1470.11	116.73
1470.48	83.97
1470.84	-20.48
1471.21	73.73
1471.58	86.01
1471.95	122.88
1472.31	53.25
1472.68	26.62
1473.05	14.34
1473.41	38.91
1473.78	118.78
1474.15	34.82
1474.52	79.87
1474.88	12.29
1475.25	73.73
1475.62	-55.30
1475.99	8.19
1476.35	34.82
1476.72	69.63
1477.09	81.92
1477.45	139.26
1477.82	69.63
1478.19	61.44
1478.55	151.55
1478.92	55.30
1479.29	112.64
1479.66	90.11
1480.02	94.21
1480.39	63.49
1480.76	71.68
1481.12	118.78
1481.49	79.87
1481.86	36.86
1482.22	59.39
1482.59	61.44
1482.96	102.40
1483.32	51.20
1483.69	18.43
1484.06	96.25
1484.42	59.39
1484.79	45.06
1485.15	124.93
1485.52	104.45
1485.89	147.45
1486.25	22.53
1486.62	59.39
1486.99	65.54
1487.35	-2.05
1487.72	4.10
1488.09	94.21
1488.45	45.06
1488.82	145.41
1489.18	77.82
1489.55	77.82
1489.92	98.30
1490.28	55.30
1490.65	59.39
1491.01	92.16
1491.38	100.35
1491.75	169.98
1492.11	26.62
1492.48	112.64
1492.84	18.43
1493.21	30.72
1493.58	145.41
1493.94	73.73
1494.31	137.21
1494.67	-10.24
1495.04	131.07
1495.40	55.30
1495.77	-47.10
1496.14	139.26
1496.50	186.37
1496.87	-12.29
1497.23	96.25
1497.60	26.62
1497.96	-10.24
1498.33	88.06
1498.70	157.69
1499.06	100.35
1499.43	124.93
1499.79	8.19
1500.16	161.79
1500.52	110.59
1500.89	65.53
1501.25	43.01
1501.62	-8.19
1501.98	104.45
1502.35	86.01
1502.71	57.34
1503.08	32.77
1503.44	-67.58
1503.81	38.91
1504.17	63.49
1504.54	112.64
1504.90	14.34
1505.27	0.00
1505.63	69.63
1506.00	71.68
1506.36	135.17
1506.73	24.58
1507.09	126.97
1507.46	73.73
1507.82	-22.53
1508.19	34.82
1508.55	40.96
1508.92	-16.38
1509.28	61.44
1509.65	92.16
1510.01	30.72
1510.38	-6.14
1510.74	102.40
1511.11	18.43
1511.47	92.16
1511.83	116.73
1512.20	8.19
1512.56	133.12
1512.93	75.77
1513.29	2.05
1513.66	38.91
1514.02	6.14
1514.39	-8.19
1514.75	59.39
1515.11	63.49
1515.48	71.68
1515.84	110.59
1516.21	-6.14
1516.57	43.01
1516.94	49.15
1517.30	10.24
1517.66	16.38
1518.03	83.97
1518.39	38.91
1518.76	45.06
1519.12	137.21
1519.48	79.87
1519.85	-18.43
1520.21	0.00
1520.58	94.21
1520.94	24.58
1521.30	51.20
1521.67	-12.29
1522.03	69.63
1522.39	51.20
1522.76	67.58
1523.12	73.73
1523.49	104.45
1523.85	43.01
1524.21	83.97
1524.58	10.24
1524.94	-6.14
1525.30	45.06
1525.67	6.14
1526.03	145.41
1526.39	96.25
1526.76	92.16
1527.12	71.68
1527.48	-43.01
1527.85	16.38
1528.21	172.03
1528.57	-57.34
1528.94	-63.49
1529.30	65.54
1529.66	24.58
1530.03	-4.10
1530.39	110.59
1530.75	57.34
1531.12	30.72
1531.48	-18.43
1531.84	-18.43
1532.21	12.29
1532.57	47.10
1532.93	8.19
1533.29	22.53
1533.66	6.14
1534.02	-18.43
1534.38	81.92
1534.75	-22.53
1535.11	18.43
1535.47	26.62
1535.83	-2.05
1536.20	14.34
1536.56	65.54
1536.92	57.34
1537.28	8.19
1537.65	53.25
1538.01	18.43
1538.37	32.77
1538.74	83.97
1539.10	-71.68
1539.46	-4.10
1539.82	40.96
1540.19	61.44
1540.55	-12.29
1540.91	69.63
1541.27	-10.24
1541.63	53.25
1542.00	-28.67
1542.36	0.00
1542.72	-4.10
1543.08	-12.29
1543.45	-2.05
1543.81	8.19
1544.17	-30.72
1544.53	-28.67
1544.89	-26.62
1545.26	135.17
1545.62	10.24
1545.98	96.25
1546.34	-2.05
1546.70	12.29
1547.07	77.82
1547.43	-8.19
1547.79	59.39
1548.15	-92.16
1548.51	10.24
1548.88	-98.30
1549.24	53.25
1549.60	-24.58
1549.96	98.30
1550.32	77.82
1550.68	12.29
1551.05	30.72
1551.41	92.16
1551.77	65.53
1552.13	-28.67
1552.49	102.40
1552.85	79.87
1553.22	22.53
1553.58	-30.72
1553.94	94.21
1554.30	-47.10
1554.66	88.06
1555.02	16.38
1555.38	34.82
1555.75	20.48
1556.11	28.67
1556.47	24.58
1556.83	-4.10
1557.19	47.10
1557.55	-14.34
1557.91	18.43
1558.27	24.58
1558.63	-63.49
1559.00	28.67
1559.36	67.58
1559.72	-96.25
1560.08	-38.91
1560.44	75.77
1560.80	-92.16
1561.16	4.10
1561.52	69.63
1561.88	106.49
1562.24	12.29
1562.60	-8.19
1562.97	14.34
1563.33	83.97
1563.69	36.86
1564.05	63.49
1564.41	-4.10
1564.77	-14.34
1565.13	-141.31
1565.49	32.77
1565.85	-10.24
1566.21	40.96
1566.57	94.21
1566.93	69.63
1567.29	49.15
1567.65	81.92
1568.01	-51.20
1568.37	83.97
1568.73	12.29
1569.09	-59.39
1569.45	57.34
1569.82	-112.64
1570.18	98.30
1570.54	57.34
1570.90	-2.05
1571.26	18.43
1571.62	26.62
1571.98	34.82
1572.34	47.10
1572.70	-45.06
1573.06	16.38
1573.42	81.92
1573.78	53.25
1574.14	-22.53
1574.50	18.43
1574.86	2.05
1575.22	-4.10
1575.58	-6.14
1575.94	-34.82
1576.30	36.86
1576.66	26.62
1577.01	61.44
1577.37	24.58
1577.73	94.21
1578.09	22.53
1578.45	18.43
1578.81	57.34
1579.17	-71.68
1579.53	83.97
1579.89	22.53
1580.25	-32.77
1580.61	4.10
1580.97	63.49
1581.33	79.87
1581.69	-45.06
1582.05	4.10
1582.41	-110.59
1582.77	-40.96
1583.13	-73.73
1583.49	69.63
1583.84	34.82
1584.20	-30.72
1584.56	51.20
1584.92	-65.54
1585.28	81.92
1585.64	65.54
1586.00	55.30
1586.36	43.01
1586.72	2.05
1587.08	28.67
1587.44	10.24
1587.79	26.62
1588.15	73.73
1588.51	-6.14
1588.87	-38.91
1589.23	63.49
1589.59	-65.54
1589.95	73.73
1590.31	14.34
1590.66	-8.19
1591.02	-20.48
1591.38	12.29
1591.74	8.19
1592.10	-28.67
1592.46	12.29
1592.82	-45.06
1593.18	18.43
1593.53	-6.14
1593.89	-38.91
1594.25	4.10
1594.61	20.48
1594.97	-26.62
1595.33	51.20
1595.68	8.19
1596.04	75.77
1596.40	92.16
1596.76	59.39
1597.12	-45.06
1597.48	-38.91
1597.83	51.20
1598.19	-24.58
1598.55	-16.38
1598.91	10.24
1599.27	114.69
1599.62	12.29
1599.98	8.19
1600.34	2.05
1600.70	-14.34
1601.06	-40.96
1601.41	16.38
1601.77	16.38
1602.13	61.44
1602.49	2.05
1602.85	32.77
1603.20	57.34
1603.56	-86.01
1603.92	30.72
1604.28	-53.25
1604.63	-26.62
1604.99	112.64
1605.35	24.58
1605.71	-14.34
1606.06	-26.62
1606.42	30.72
1606.78	18.43
1607.14	26.62
1607.49	-36.86
1607.85	-47.10
1608.21	-57.34
1608.57	36.86
1608.92	4.10
1609.28	30.72
1609.64	-88.06
1610.00	-28.67
1610.35	28.67
1610.71	16.38
1611.07	-51.20
1611.43	57.34
1611.78	20.48
1612.14	30.72
1612.50	2.05
1612.85	4.10
1613.21	18.43
1613.57	47.10
1613.92	49.15
1614.28	45.06
1614.64	36.86
1615.00	-2.05
1615.35	22.53
1615.71	96.25
1616.07	-8.19
1616.42	49.15
1616.78	8.19
1617.14	-16.38
1617.49	-20.48
1617.85	40.96
1618.21	-45.06
1618.56	-38.91
1618.92	65.53
1619.28	6.14
1619.63	-2.05
1619.99	-20.48
1620.35	-106.49
1620.70	-34.82
1621.06	4.10
1621.42	-4.10
1621.77	-18.43
1622.13	-8.19
1622.48	-45.06
1622.84	0.00
1623.20	26.62
1623.55	-77.82
1623.91	-20.48
1624.27	30.72
1624.62	26.62
1624.98	16.38
1625.33	49.15
1625.69	-8.19
1626.05	-36.86
1626.40	104.45
1626.76	-18.43
1627.11	-88.06
1627.47	-14.34
1627.83	28.67
1628.18	20.48
1628.54	59.39
1628.89	43.01
1629.25	-14.34
1629.61	-10.24
1629.96	-43.01
1630.32	-4.10
1630.67	55.30
1631.03	10.24
1631.38	110.59
1631.74	-16.38
1632.10	-14.34
1632.45	20.48
1632.81	-36.86
1633.16	-30.72
1633.52	-26.62
1633.87	0.00
1634.23	10.24
1634.58	-26.62
1634.94	-6.14
1635.30	69.63
1635.65	69.63
1636.01	-14.34
1636.36	2.05
1636.72	63.49
1637.07	22.53
1637.43	-12.29
1637.78	28.67
1638.14	65.53
1638.49	75.77
1638.85	-28.67
1639.20	22.53
1639.56	36.86
1639.91	20.48
1640.27	22.53
1640.62	20.48
1640.98	34.82
1641.33	86.01
1641.69	22.53
1642.04	10.24
1642.40	-24.58
1642.75	12.29
1643.11	-71.68
1643.46	65.53
1643.82	77.82
1644.17	32.77
1644.53	-36.86
1644.88	-61.44
1645.24	4.10
1645.59	14.34
1645.94	73.73
1646.30	-43.01
1646.65	-79.87
1647.01	-71.68
1647.36	55.30
1647.72	-28.67
1648.07	14.34
1648.43	69.63
1648.78	38.91
1649.14	86.01
1649.49	67.58
1649.84	83.97
1650.20	12.29
1650.55	55.30
1650.91	2.05
1651.26	-14.34
1651.61	-49.15
1651.97	-6.14
1652.32	16.38
1652.68	-14.34
1653.03	2.05
1653.39	-32.77
1653.74	79.87
1654.09	4.10
1654.45	-6.14
1654.80	43.01
1655.16	12.29
1655.51	-6.14
1655.86	-51.20
1656.22	53.25
1656.57	51.20
1656.92	18.43
1657.28	61.44
1657.63	8.19
1657.99	4.10
1658.34	-4.10
1658.69	20.48
1659.05	45.06
1659.40	4.10
1659.75	-94.21
1660.11	-18.43
1660.46	38.91
1660.81	-47.10
1661.17	-57.34
1661.52	-71.68
1661.87	24.58
1662.23	-63.49
1662.58	-32.77
1662.93	30.72
1663.29	-47.10
1663.64	-73.73
1663.99	-36.86
1664.35	-65.54
1664.70	-43.01
1665.05	112.64
1665.41	75.77
1665.76	-14.34
1666.11	-49.15
1666.47	143.36
1666.82	61.44
1667.17	51.20
1667.52	-32.77
1667.88	38.91
1668.23	-12.29
1668.58	-22.53
1668.94	-40.96
1669.29	18.43
1669.64	-43.01
1670.00	24.58
1670.35	-8.19
1670.70	4.10
1671.05	-12.29
1671.41	26.62
1671.76	-36.86
1672.11	-10.24
1672.46	-36.86
1672.82	12.29
1673.17	24.58
1673.52	38.91
1673.87	-65.53
1674.23	102.40
1674.58	40.96
1674.93	-6.14
1675.28	38.91
1675.64	49.15
1675.99	81.92
1676.34	10.24
1676.69	24.58
1677.05	34.82
1677.40	-12.29
1677.75	-55.30
1678.10	-20.48
1678.45	8.19
1678.81	-65.53
1679.16	-22.53
1679.51	-22.53
1679.86	-63.49
1680.21	-38.91
1680.57	-18.43
1680.92	86.01
1681.27	-12.29
1681.62	-81.92
1681.97	57.34
1682.33	-36.86
1682.68	-36.86
1683.03	-12.29
1683.38	4.10
1683.73	-92.16
1684.08	49.15
1684.44	-18.43
1684.79	-45.06
1685.14	53.25
1685.49	53.25
1685.84	-36.86
1686.19	32.77
1686.55	20.48
1686.90	8.19
1687.25	22.53
1687.60	38.91
1687.95	-12.29
1688.30	53.25
1688.65	38.91
1689.01	-18.43
1689.36	-10.24
1689.71	4.10
1690.06	47.10
1690.41	-26.62
1690.76	-26.62
1691.11	32.77
1691.46	-43.01
1691.82	38.91
1692.17	14.34
1692.52	16.38
1692.87	32.77
1693.22	32.77
1693.57	0.00
1693.92	4.10
1694.27	57.34
1694.62	10.24
1694.97	-77.82
1695.33	45.06
1695.68	-14.34
1696.03	-24.58
1696.38	28.67
1696.73	28.67
1697.08	-34.82
1697.43	30.72
1697.78	43.01
1698.13	-47.10
1698.48	-47.10
1698.83	20.48
1699.18	-24.58
1699.53	65.54
1699.88	47.10
1700.24	-112.64
1700.59	-16.38
1700.94	-34.82
1701.29	-2.05
1701.64	18.43
1701.99	-20.48
1702.34	24.58
1702.69	10.24
1703.04	-32.77
1703.39	43.01
1703.74	-22.53
1704.09	14.34
1704.44	26.62
1704.79	18.43
1705.14	36.86
1705.49	2.05
1705.84	77.82
1706.19	43.01
1706.54	65.54
1706.89	73.73
1707.24	-51.20
1707.59	-79.87
1707.94	-24.58
1708.29	-18.43
1708.64	-57.34
1708.99	57.34
1709.34	-67.58
1709.69	34.82
1710.04	-65.53
1710.39	0.00
1710.74	-47.10
1711.09	-45.06
1711.44	34.82
1711.79	-6.14
1712.14	-34.82
1712.49	-28.67
1712.84	-71.68
1713.18	32.77
1713.53	28.67
1713.88	45.06
1714.23	92.16
1714.58	47.10
1714.93	30.72
1715.28	75.77
1715.63	-69.63
1715.98	53.25
1716.33	28.67
1716.68	4.10
1717.03	-10.24
1717.38	-8.19
1717.73	30.72
1718.08	-43.01
1718.42	53.25
1718.77	-28.67
1719.12	-57.34
1719.47	34.82
1719.82	94.21
1720.17	69.63
1720.52	90.11
1720.87	36.86
1721.22	49.15
1721.57	6.14
1721.91	-10.24
1722.26	40.96
1722.61	53.25
1722.96	0.00
1723.31	34.82
1723.66	-18.43
1724.01	26.62
1724.36	122.88
1724.70	-24.58
1725.05	-20.48
1725.40	-57.34
1725.75	32.77
1726.10	-38.91
1726.45	43.01
1726.80	73.73
1727.14	20.48
1727.49	24.58
1727.84	-4.10
1728.19	-20.48
1728.54	-65.53
1728.89	6.14
1729.23	-28.67
1729.58	28.67
1729.93	-63.49
1730.28	4.10
1730.63	65.54
1730.97	18.43
1731.32	-2.05
1731.67	71.68
1732.02	8.19
1732.37	36.86
1732.72	-30.72
1733.06	-116.73
1733.41	-83.97
1733.76	-6.14
1734.11	55.30
1734.46	73.73
1734.80	26.62
1735.15	-51.20
1735.50	55.30
1735.85	-92.16
1736.19	-71.68
1736.54	24.58
>>>>>End Processed Spectral Data<<<<<
