SpectraSuite Data File
++++++++++++++++++++++++++++++++++++
Date: Wed Jan 05 13:53:57 EET 2022
User: optika
Dark Spectrum Present: Yes
Reference Spectrum Present: No
Number of Sampled Component Spectra: 1
Spectrometers: USB4H03366
Integration Time (usec): 2000 (USB4H03366)
Spectra Averaged: 1 (USB4H03366)
Boxcar Smoothing: 0 (USB4H03366)
Correct for Electrical Dark: No (USB4H03366)
Strobe/Lamp Enabled: No (USB4H03366)
Correct for Detector Non-linearity: No (USB4H03366)
Correct for Stray Light: No (USB4H03366)
Number of Pixels in Processed Spectrum: 3648
>>>>>Begin Processed Spectral Data<<<<<
291.48	-20.48
291.93	-20.48
292.37	-20.48
292.82	90.11
293.26	26.62
293.70	96.25
294.15	-34.82
294.59	12.29
295.04	-32.77
295.48	-57.34
295.93	-4.10
296.37	-16.38
296.82	8.19
297.26	63.49
297.71	24.58
298.15	-59.39
298.59	24.58
299.04	-75.77
299.48	-10.24
299.93	75.77
300.37	-40.96
300.82	-34.82
301.26	104.45
301.70	67.58
302.15	-45.06
302.59	30.72
303.04	-65.54
303.48	-22.53
303.92	53.25
304.37	-10.24
304.81	14.34
305.26	-10.24
305.70	36.86
306.14	86.01
306.59	-53.25
307.03	38.91
307.47	38.91
307.92	49.15
308.36	14.34
308.81	-18.43
309.25	24.58
309.69	12.29
310.14	18.43
310.58	53.25
311.02	112.64
311.47	-30.72
311.91	45.06
312.36	-34.82
312.80	24.58
313.24	40.96
313.69	20.48
314.13	-67.58
314.57	18.43
315.02	-34.82
315.46	-2.05
315.90	24.58
316.35	73.73
316.79	-30.72
317.23	75.77
317.68	88.06
318.12	-20.48
318.56	38.91
319.00	10.24
319.45	-16.38
319.89	51.20
320.33	-36.86
320.78	38.91
321.22	49.15
321.66	-30.72
322.11	16.38
322.55	-18.43
322.99	108.54
323.43	6.14
323.88	-8.19
324.32	14.34
324.76	-59.39
325.21	4.10
325.65	16.38
326.09	-20.48
326.53	-36.86
326.98	-14.34
327.42	10.24
327.86	-2.05
328.30	24.58
328.75	-32.77
329.19	16.38
329.63	-22.53
330.07	-63.49
330.52	12.29
330.96	-14.34
331.40	6.14
331.84	-8.19
332.29	16.38
332.73	-32.77
333.17	-4.10
333.61	28.67
334.05	-4.10
334.50	-6.14
334.94	28.67
335.38	10.24
335.82	40.96
336.27	0.00
336.71	51.20
337.15	16.38
337.59	-32.77
338.03	-51.20
338.47	-40.96
338.92	40.96
339.36	49.15
339.80	-57.34
340.24	34.82
340.68	96.25
341.13	34.82
341.57	-4.10
342.01	-10.24
342.45	79.87
342.89	26.62
343.33	45.06
343.78	55.30
344.22	6.14
344.66	0.00
345.10	8.19
345.54	-18.43
345.98	32.77
346.43	-10.24
346.87	8.19
347.31	45.06
347.75	26.62
348.19	10.24
348.63	-8.19
349.07	-16.38
349.51	81.92
349.96	51.20
350.40	6.14
350.84	38.91
351.28	-34.82
351.72	-49.15
352.16	26.62
352.60	-67.58
353.04	-43.01
353.49	53.25
353.93	45.06
354.37	49.15
354.81	63.49
355.25	-81.92
355.69	-4.10
356.13	88.06
356.57	30.72
357.01	10.24
357.45	24.58
357.89	-55.30
358.33	75.77
358.78	-10.24
359.22	8.19
359.66	-32.77
360.10	-28.67
360.54	-69.63
360.98	34.82
361.42	-18.43
361.86	10.24
362.30	-45.06
362.74	14.34
363.18	57.34
363.62	34.82
364.06	-61.44
364.50	0.00
364.94	110.59
365.38	73.73
365.82	47.10
366.26	-18.43
366.70	-47.10
367.14	-65.53
367.58	43.01
368.02	16.38
368.46	22.53
368.90	-8.19
369.34	18.43
369.78	-36.86
370.22	4.10
370.66	-6.14
371.10	-2.05
371.54	49.15
371.98	-38.91
372.42	49.15
372.86	8.19
373.30	2.05
373.74	4.10
374.18	-14.34
374.62	36.86
375.06	-75.77
375.50	6.14
375.94	38.91
376.38	-22.53
376.82	-22.53
377.26	-2.05
377.70	-73.73
378.14	51.20
378.58	10.24
379.02	12.29
379.46	-69.63
379.90	-26.62
380.34	49.15
380.78	16.38
381.22	22.53
381.66	65.53
382.10	-28.67
382.53	75.77
382.97	98.30
383.41	16.38
383.85	90.11
384.29	-34.82
384.73	-61.44
385.17	30.72
385.61	-36.86
386.05	-6.14
386.49	-16.38
386.93	45.06
387.36	6.14
387.80	40.96
388.24	51.20
388.68	-6.14
389.12	-53.25
389.56	-47.10
390.00	145.41
390.44	-32.77
390.88	-24.58
391.31	-8.19
391.75	55.30
392.19	-34.82
392.63	-18.43
393.07	16.38
393.51	-59.39
393.95	55.30
394.39	-22.53
394.82	34.82
395.26	-14.34
395.70	20.48
396.14	-38.91
396.58	30.72
397.02	-59.39
397.45	-22.53
397.89	-18.43
398.33	83.97
398.77	30.72
399.21	-38.91
399.65	-22.53
400.08	75.77
400.52	34.82
400.96	-49.15
401.40	104.45
401.84	43.01
402.27	14.34
402.71	-55.30
403.15	43.01
403.59	-18.43
404.03	122.88
404.46	38.91
404.90	-49.15
405.34	61.44
405.78	-38.91
406.22	124.93
406.65	0.00
407.09	-26.62
407.53	-20.48
407.97	57.34
408.40	59.39
408.84	67.58
409.28	-38.91
409.72	-40.96
410.16	-53.25
410.59	6.14
411.03	-38.91
411.47	200.70
411.91	34.82
412.34	47.10
412.78	77.82
413.22	137.21
413.66	28.67
414.09	63.49
414.53	102.40
414.97	32.77
415.40	30.72
415.84	63.49
416.28	26.62
416.72	16.38
417.15	28.67
417.59	-26.62
418.03	114.69
418.46	24.58
418.90	81.92
419.34	6.14
419.78	137.21
420.21	20.48
420.65	28.67
421.09	90.11
421.52	57.34
421.96	141.31
422.40	77.82
422.83	75.77
423.27	155.65
423.71	67.58
424.14	75.77
424.58	108.54
425.02	98.30
425.45	102.40
425.89	94.21
426.33	141.31
426.76	96.25
427.20	180.22
427.64	139.26
428.07	79.87
428.51	200.70
428.95	198.65
429.38	131.07
429.82	143.36
430.26	133.12
430.69	172.03
431.13	163.84
431.57	188.41
432.00	174.08
432.44	124.93
432.87	196.61
433.31	143.36
433.75	241.66
434.18	151.55
434.62	131.07
435.05	112.64
435.49	153.60
435.93	270.33
436.36	159.74
436.80	237.56
437.23	196.61
437.67	231.42
438.11	315.39
438.54	313.34
438.98	198.65
439.41	188.41
439.85	266.24
440.29	274.43
440.72	282.62
441.16	270.33
441.59	319.48
442.03	194.56
442.46	282.62
442.90	415.74
443.34	362.49
443.77	339.96
444.21	317.44
444.64	301.05
445.08	374.78
445.51	415.74
445.95	391.16
446.38	333.82
446.82	401.40
447.25	428.03
447.69	358.39
448.13	372.73
448.56	493.56
449.00	432.12
449.43	411.64
449.87	499.70
450.30	610.29
450.74	466.94
451.17	507.90
451.61	583.67
452.04	571.38
452.48	587.77
452.91	581.62
453.35	739.32
453.78	681.97
454.22	714.74
454.65	673.78
455.09	731.12
455.52	770.04
455.96	774.13
456.39	772.08
456.83	821.24
457.26	819.19
457.69	804.85
458.13	927.73
458.56	966.64
459.00	1124.33
459.43	1085.42
459.87	1058.80
460.30	1066.99
460.74	1191.92
461.17	1226.73
461.61	1318.89
462.04	1353.71
462.47	1400.81
462.91	1415.15
463.34	1347.56
463.78	1413.10
464.21	1558.50
464.65	1767.40
465.08	1744.87
465.51	1974.24
465.95	1689.57
466.38	1722.34
466.82	1904.61
467.25	2103.26
467.69	2060.26
468.12	2121.70
468.55	2353.12
468.99	2236.38
469.42	2451.42
469.86	2535.39
470.29	2686.94
470.72	2713.56
471.16	2752.47
471.59	2641.88
472.03	3024.85
472.46	2772.95
472.89	3008.47
473.33	3121.10
473.76	3305.42
474.19	3606.47
474.63	3332.05
475.06	3561.42
475.49	3760.07
475.93	3786.69
476.36	4130.75
476.80	3981.25
477.23	4515.77
477.66	4020.16
478.10	4360.13
478.53	4392.89
478.96	4757.43
479.40	4966.32
479.83	4853.69
480.26	4773.82
480.70	5322.67
481.13	5154.74
481.56	5580.71
482.00	5257.14
482.43	5466.03
482.86	5666.73
483.30	6004.64
483.73	6006.69
484.16	5930.92
484.59	6170.53
485.03	6473.63
485.46	6623.13
485.89	6430.62
486.33	6322.08
486.76	6893.46
487.19	6813.59
487.63	6893.46
488.06	6965.14
488.49	7557.00
488.92	7358.35
489.36	7337.87
489.79	7503.76
490.22	7595.92
490.65	7741.32
491.09	8251.27
491.52	7919.50
491.95	8294.27
492.38	8167.30
492.82	8501.12
493.25	8548.22
493.68	8576.89
494.11	8435.58
494.55	8933.24
494.98	8908.66
495.41	8978.30
495.84	8816.51
496.28	8937.34
496.71	8873.85
497.14	9439.09
497.57	9162.61
498.01	9482.10
498.44	9539.44
498.87	10071.91
499.30	9869.16
499.73	10041.19
500.17	9662.32
500.60	10080.10
501.03	10061.67
501.46	10501.98
501.89	10368.87
502.33	10608.48
502.76	10469.22
503.19	10864.47
503.62	10921.82
504.05	11071.32
504.49	10862.43
504.92	10743.64
505.35	10854.23
505.78	11378.51
506.21	11583.31
506.64	11812.68
507.08	11753.29
507.51	11953.99
507.94	11794.25
508.37	12265.28
508.80	11863.88
509.23	12027.72
509.67	12320.58
510.10	12592.96
510.53	12670.78
510.96	12732.22
511.39	12697.41
511.82	13043.51
512.25	13039.42
512.69	13125.43
513.12	13285.17
513.55	13584.18
513.98	13276.98
514.41	13492.02
514.84	13578.03
515.27	14020.39
515.70	13668.14
516.14	13862.70
516.57	13885.23
517.00	14106.41
517.43	14372.64
517.86	14749.47
518.29	14446.37
518.72	14645.02
519.15	14624.54
519.58	14796.57
520.01	14913.31
520.45	15134.49
520.88	14819.10
521.31	15007.52
521.74	15224.60
522.17	15779.60
522.60	15720.21
523.03	15562.51
523.46	15568.66
523.89	16119.56
524.32	16000.78
524.75	16432.90
525.18	16125.71
525.61	16359.17
526.04	16041.74
526.47	16758.53
526.90	16455.43
527.33	16641.79
527.77	16641.79
528.20	17051.39
528.63	16742.14
529.06	16912.13
529.49	16668.42
529.92	17153.79
530.35	16977.66
530.78	17893.10
531.21	17436.41
531.64	17491.70
532.07	17762.03
532.50	17882.86
532.93	17780.46
533.36	18044.65
533.79	17972.97
534.22	18122.48
534.65	18276.07
535.08	18501.35
535.51	18300.65
535.94	18521.83
536.37	18132.72
536.80	18521.83
537.23	18777.83
537.66	18720.48
538.09	18816.74
538.52	18865.89
538.95	18743.01
539.38	19050.21
539.81	18841.31
540.24	19119.84
540.66	19334.87
541.09	19793.62
541.52	19338.97
541.95	19545.81
542.38	19885.78
542.81	19343.06
543.24	19488.47
543.67	19926.74
544.10	19519.19
544.53	19881.68
544.96	19511.00
545.39	19818.19
545.82	19953.36
546.25	20031.18
546.68	20123.34
547.11	20330.19
547.53	20356.81
547.96	20575.94
548.39	20166.35
548.82	20707.01
549.25	20381.39
549.68	21178.04
550.11	20883.14
550.54	20958.91
550.97	20909.76
551.40	21167.80
551.82	21644.98
552.25	21440.18
552.68	20698.82
553.11	21276.35
553.54	21425.85
553.97	21542.58
554.40	21462.71
554.83	22171.31
555.26	21923.51
555.68	22193.84
556.11	22001.33
556.54	22144.69
556.97	22060.72
557.40	22668.97
557.83	22335.15
558.26	22967.97
558.68	22699.69
559.11	23264.92
559.54	23144.09
559.97	23074.46
560.40	23051.94
560.83	23510.68
561.25	23013.02
561.68	23371.42
562.11	23582.36
562.54	23543.45
562.97	23410.33
563.40	23903.89
563.82	23910.04
564.25	24258.19
564.68	23905.94
565.11	24225.42
565.54	23910.04
565.96	24493.71
566.39	24123.02
566.82	25026.18
567.25	24526.47
567.68	25038.47
568.10	24979.07
568.53	25192.06
568.96	25239.17
569.39	25009.79
569.81	25026.18
570.24	25249.41
570.67	25560.70
571.10	25458.30
571.53	25095.81
571.95	26029.68
572.38	25857.65
572.81	26189.42
573.24	25781.88
573.66	25996.92
574.09	26185.33
574.52	26316.40
574.95	25443.96
575.37	26214.00
575.80	26515.05
576.23	26486.38
576.66	26914.41
577.08	26728.04
577.51	26273.39
577.94	26975.84
578.36	27000.42
578.79	27307.62
579.22	26801.77
579.65	26764.90
580.07	27211.36
580.50	27420.25
580.93	27356.77
581.36	27534.94
581.78	27487.84
582.21	27354.72
582.64	27305.57
583.06	27407.97
583.49	27786.84
583.92	27571.80
584.34	27856.47
584.77	28235.35
585.20	27989.59
585.62	28038.74
586.05	27911.77
586.48	28405.33
586.90	28411.47
587.33	27719.26
587.76	28933.70
588.18	28685.90
588.61	28298.83
589.04	28610.12
589.46	28513.87
589.89	28644.94
590.32	28700.23
590.74	28868.17
591.17	28974.66
591.60	28950.09
592.02	29126.21
592.45	29118.02
592.88	28853.83
593.30	29085.25
593.73	29548.09
594.15	29218.37
594.58	28960.33
595.01	29566.52
595.43	29029.96
595.86	29918.78
596.29	29943.35
596.71	29396.54
597.14	29949.50
597.56	29838.90
597.99	30326.32
598.42	29472.32
598.84	29992.50
599.27	30172.72
599.69	30262.83
600.12	30037.56
600.55	30791.21
600.97	30713.39
601.40	30283.31
601.82	30619.18
602.25	30885.42
602.67	30723.63
603.10	30858.79
603.53	30522.93
603.95	31114.79
604.38	30989.86
604.80	31323.68
605.23	31118.89
605.65	31686.17
606.08	32224.79
606.50	31698.46
606.93	31630.88
607.36	31688.22
607.78	32136.73
608.21	32439.82
608.63	32275.99
609.06	32310.80
609.48	32261.65
609.91	32362.00
610.33	32353.81
610.76	32312.85
611.18	32640.53
611.61	32601.61
612.03	32421.39
612.46	32949.77
612.88	32714.25
613.31	32222.74
613.73	32992.78
614.16	32534.03
614.58	32574.99
615.01	32595.47
615.43	33248.77
615.86	33533.44
616.28	33003.02
616.71	32437.78
617.13	33564.16
617.56	33207.81
617.98	33250.82
618.41	33664.51
618.83	33650.17
619.26	33154.57
619.68	33709.57
620.11	33533.44
620.53	34020.86
620.96	33265.16
621.38	33594.88
621.81	33424.90
622.23	34164.21
622.65	33758.72
623.08	33766.91
623.50	33656.32
623.93	33857.02
624.35	33637.89
624.78	34317.81
625.20	33674.75
625.62	33760.76
626.05	33842.68
626.47	34618.86
626.90	34409.97
627.32	34090.49
627.75	34047.48
628.17	33926.65
628.59	34088.44
629.02	34551.28
629.44	34393.59
629.87	34162.17
630.29	34283.00
630.71	34117.11
631.14	34606.58
631.56	34948.59
631.99	33840.64
632.41	34698.73
632.83	34469.36
633.26	34717.17
633.68	34864.62
634.11	34506.23
634.53	34995.69
634.95	34983.40
635.38	34917.87
635.80	35118.57
636.22	34295.28
636.65	35192.30
637.07	35034.60
637.49	35005.93
637.92	34860.52
638.34	35306.98
638.76	34758.13
639.19	35577.31
639.61	35343.84
640.04	35423.72
640.46	35511.78
640.88	35694.05
641.31	35425.76
641.73	35948.00
642.15	35466.72
642.57	36122.07
643.00	35599.84
643.42	35587.55
643.84	35837.41
644.27	35917.28
644.69	35892.70
645.11	36294.10
645.54	35552.74
645.96	35939.80
646.38	36105.69
646.81	36425.17
647.23	35737.05
647.65	35907.04
648.07	35984.86
648.50	35962.33
648.92	36068.83
649.34	35816.93
649.77	35603.94
650.19	36056.54
650.61	36031.96
651.03	35900.89
651.46	36066.78
651.88	36285.91
652.30	35730.91
652.72	36247.00
653.15	36468.18
653.57	36060.63
653.99	36883.92
654.41	36523.47
654.84	36562.39
655.26	36687.31
655.68	36664.78
656.10	37017.04
656.53	36253.14
656.95	36728.27
657.37	36480.47
657.79	36414.93
658.22	36754.90
658.64	36304.34
659.06	36548.05
659.48	36920.78
659.90	36048.35
660.33	36488.66
660.75	36353.49
661.17	36464.08
661.59	36224.47
662.02	36093.40
662.44	36171.22
662.86	36253.14
663.28	35739.10
663.70	36433.36
664.12	35964.38
664.55	36492.76
664.97	36021.72
665.39	36462.04
665.81	35886.56
666.23	36738.51
666.66	36193.75
667.08	36853.20
667.50	36507.09
667.92	36685.26
668.34	36023.77
668.76	36402.64
669.19	36328.92
669.61	36699.60
670.03	36427.22
670.45	36271.57
670.87	36343.25
671.29	36662.74
671.71	36230.62
672.14	36089.31
672.56	35630.56
672.98	36173.27
673.40	36267.48
673.82	36353.49
674.24	36091.35
674.66	36486.61
675.08	36259.29
675.51	36349.40
675.93	36357.59
676.35	36345.30
676.77	36140.50
677.19	36277.72
677.61	36117.98
678.03	36406.74
678.45	36326.87
678.87	35974.62
679.29	36134.36
679.72	36271.57
680.14	36267.48
680.56	35997.15
680.98	36195.80
681.40	35861.98
681.82	36402.64
682.24	35638.75
682.66	35757.53
683.08	36244.95
683.50	35546.59
683.92	35771.87
684.34	35790.30
684.76	35747.29
685.18	35978.72
685.61	36251.09
686.03	35802.59
686.45	36105.69
686.87	35532.26
687.29	36603.35
687.71	35898.84
688.13	35624.42
688.55	35444.20
688.97	36476.37
689.39	36103.64
689.81	36408.79
690.23	35390.95
690.65	36142.55
691.07	35706.34
691.49	35849.69
691.91	35948.00
692.33	35663.33
692.75	35657.18
693.17	35653.09
693.59	35212.77
694.01	36208.09
694.43	35644.90
694.85	35902.94
695.27	35530.21
695.69	35464.67
696.11	35065.32
696.53	35235.30
696.95	35034.60
697.37	35616.22
697.79	35091.94
698.21	34676.21
698.63	35454.44
699.05	35595.74
699.47	35206.63
699.89	35530.21
700.31	34870.76
700.73	35603.94
701.15	34981.35
701.57	35116.52
701.98	35225.06
702.40	35278.31
702.82	34235.89
703.24	35485.15
703.66	34770.41
704.08	35677.66
704.50	35077.61
704.92	34950.63
705.34	34369.01
705.76	34536.94
706.18	34625.01
706.60	34823.66
707.02	34764.27
707.44	34715.12
707.85	34493.94
708.27	35032.55
708.69	34690.54
709.11	35020.27
709.53	34874.86
709.95	34387.44
710.37	34512.37
710.79	34610.67
711.21	33922.55
711.63	33975.80
712.04	33586.69
712.46	34280.95
712.88	33897.98
713.30	34401.78
713.72	33525.25
714.14	33811.96
714.56	33637.89
714.98	34055.67
715.39	33056.26
715.81	34002.43
716.23	33349.12
716.65	33076.74
717.07	33084.94
717.49	33197.57
717.91	32661.01
718.32	33027.59
718.74	32187.92
719.16	33062.41
719.58	32235.03
720.00	32177.68
720.42	31776.28
720.83	32206.36
721.25	31460.90
721.67	31421.98
722.09	31491.62
722.51	31215.14
722.93	31204.90
723.34	30801.45
723.76	31088.17
724.18	31110.69
724.60	31039.01
725.02	30791.21
725.43	30342.70
725.85	31024.68
726.27	29986.36
726.69	30162.48
727.11	29957.69
727.52	30518.83
727.94	30236.21
728.36	30768.68
728.78	30115.38
729.19	30551.60
729.61	30600.75
730.03	30361.14
730.45	29845.05
730.87	30205.49
731.28	30342.70
731.70	30207.54
732.12	30035.51
732.54	30019.13
732.95	30084.66
733.37	30430.77
733.79	30529.07
734.21	30133.81
734.62	30541.36
735.04	30428.72
735.46	30193.20
735.87	30316.08
736.29	30291.51
736.71	30572.08
737.13	30246.45
737.54	30744.11
737.96	30594.61
738.38	30490.16
738.80	30506.54
739.21	30543.41
739.63	30821.93
740.05	30553.65
740.46	31034.92
740.88	30459.44
741.30	30522.93
741.71	30541.36
742.13	30228.02
742.55	30303.79
742.97	30051.89
743.38	30025.27
743.80	30099.00
744.22	29767.23
744.63	29912.63
745.05	29619.77
745.47	30082.61
745.88	30426.67
746.30	29994.55
746.72	29883.96
747.13	29253.19
747.55	29517.37
747.97	29343.30
748.38	29105.73
748.80	29165.12
749.22	29238.85
749.63	28941.89
750.05	29011.53
750.46	29042.24
750.88	29034.05
751.30	28544.59
751.71	29115.97
752.13	28837.45
752.55	28466.77
752.96	28513.87
753.38	28522.06
753.79	28401.23
754.21	28919.37
754.63	28005.97
755.04	28427.85
755.46	28225.11
755.88	28425.81
756.29	28003.92
756.71	28511.82
757.12	27997.78
757.54	27954.77
757.96	27874.90
758.37	27825.75
758.79	27377.25
759.20	27536.99
759.62	27901.53
760.03	27864.66
760.45	27371.10
760.87	27827.80
761.28	27360.86
761.70	27987.54
762.11	27170.40
762.53	27674.20
762.94	27237.98
763.36	27825.75
763.78	27123.30
764.19	27520.60
764.61	27510.36
765.02	27182.69
765.44	26975.84
765.85	27393.63
766.27	27340.38
766.68	27145.83
767.10	26467.95
767.51	26672.75
767.93	27072.10
768.34	27139.68
768.76	26789.48
769.18	26680.94
769.59	26631.79
770.01	27014.76
770.42	27121.25
770.84	26676.84
771.25	26689.13
771.67	26652.27
772.08	26269.30
772.50	26588.78
772.91	26300.01
773.33	26482.28
773.74	26300.01
774.16	26140.27
774.57	25980.53
774.99	25939.57
775.40	25800.31
775.81	25755.25
776.23	25403.00
776.64	25785.97
777.06	25790.07
777.47	25474.68
777.89	25419.39
778.30	25726.58
778.72	25493.12
779.13	25269.89
779.55	25347.71
779.96	25204.35
780.38	24628.87
780.79	24776.33
781.20	24528.52
781.62	24698.50
782.03	24907.40
782.45	24245.90
782.86	24190.61
783.28	24612.49
783.69	24131.22
784.10	24432.27
784.52	23842.45
784.93	24037.01
785.35	23828.12
785.76	23727.77
786.18	24098.45
786.59	24073.87
787.00	23486.11
787.42	23778.97
787.83	24002.19
788.25	23830.16
788.66	23275.16
789.07	23367.32
789.49	23338.65
789.90	23688.85
790.32	23586.46
790.73	23045.79
791.14	23246.49
791.56	23242.40
791.97	22873.76
792.38	22775.46
792.80	22814.37
793.21	22685.35
793.62	22329.00
794.04	22847.14
794.45	22423.21
794.87	22503.08
795.28	22101.68
795.69	22255.28
796.11	22290.09
796.52	22132.40
796.93	21905.07
797.35	21986.99
797.76	22126.25
798.17	21735.09
798.59	21771.96
799.00	21565.11
799.41	21511.86
799.83	21911.22
800.24	21311.16
800.65	21274.30
801.07	21067.45
801.48	21442.23
801.89	20786.88
802.31	21221.05
802.72	21262.01
803.13	21198.52
803.54	20909.76
803.96	21085.89
804.37	20797.12
804.78	20913.86
805.20	20833.99
805.61	20512.45
806.02	20524.74
806.43	20563.65
806.85	20393.67
807.26	20588.23
807.67	20225.74
808.09	20760.26
808.50	20498.12
808.91	20377.29
809.32	20238.03
809.74	20156.11
810.15	19982.03
810.56	20258.51
810.97	19609.30
811.39	20002.51
811.80	19668.69
812.21	20059.85
812.62	19760.85
813.04	19914.45
813.45	19470.04
813.86	19617.49
814.27	19291.87
814.68	19494.61
815.10	19414.74
815.51	19144.41
815.92	18904.80
816.33	18843.36
816.75	18931.42
817.16	18886.37
817.57	18826.98
817.98	18882.27
818.39	18945.76
818.81	18702.05
819.22	18290.41
819.63	18726.63
820.04	18257.64
820.45	18730.72
820.87	18231.02
821.28	18099.95
821.69	18196.20
822.10	18333.42
822.51	18265.83
822.92	18259.69
823.34	18005.74
823.75	18067.18
824.16	17723.12
824.57	17696.50
824.98	17473.27
825.39	17368.82
825.81	17321.72
826.22	16897.79
826.63	17446.65
827.04	17340.15
827.45	17133.31
827.86	17239.80
828.28	16783.10
828.69	16934.65
829.10	16852.73
829.51	17137.40
829.92	16770.82
830.33	16762.62
830.74	16488.20
831.15	16512.77
831.57	16336.65
831.98	16600.83
832.39	16234.25
832.80	16103.18
833.21	15953.68
833.62	16307.98
834.03	15591.19
834.44	15922.96
834.85	15566.61
835.26	15529.75
835.68	15613.71
836.09	15779.60
836.50	15623.95
836.91	15898.38
837.32	15580.95
837.73	15425.30
838.14	15200.02
838.55	15503.12
838.96	14837.53
839.37	15107.87
839.78	14835.49
840.19	15234.84
840.60	14917.40
841.02	15349.53
841.43	14935.84
841.84	15163.16
842.25	15019.80
842.66	15105.82
843.07	14921.50
843.48	14941.98
843.89	14538.53
844.30	14628.64
844.71	14286.63
845.12	14665.50
845.53	14585.63
845.94	14206.76
846.35	14194.47
846.76	14214.95
847.17	14087.98
847.58	14436.13
847.99	14124.84
848.40	14350.12
848.81	14159.66
849.22	13780.78
849.63	13600.56
850.04	13780.78
850.45	13852.46
850.86	13928.24
851.27	13967.15
851.68	13719.34
852.09	13872.94
852.50	13719.34
852.91	13672.24
853.32	13670.19
853.73	13096.76
854.14	13213.49
854.55	13037.37
854.96	13055.80
855.37	13293.37
855.78	13018.94
856.19	12887.87
856.60	13180.73
857.01	13010.75
857.42	12928.83
857.83	12830.52
858.24	12986.17
858.64	12584.77
859.05	13088.57
859.46	12533.57
859.87	12556.10
860.28	12396.35
860.69	12652.35
861.10	12377.92
861.51	12590.91
861.92	12203.85
862.33	12742.46
862.74	12453.70
863.15	12808.00
863.56	12007.24
863.96	12060.49
864.37	12187.46
864.78	12097.35
865.19	11894.60
865.60	11882.31
866.01	11878.22
866.42	11659.09
866.83	11558.74
867.24	11609.93
867.65	11267.92
868.05	11523.92
868.46	11415.38
868.87	11487.06
869.28	11153.24
869.69	11327.32
870.10	10919.77
870.51	10913.63
870.92	10612.57
871.32	11134.81
871.73	10645.34
872.14	11061.08
872.55	10682.21
872.96	11077.46
873.37	10338.15
873.77	10241.89
874.18	10418.02
874.59	10432.35
875.00	10295.14
875.41	10544.99
875.82	9901.93
876.22	10006.38
876.63	9977.70
877.04	10254.18
877.45	9899.88
877.86	10196.84
878.27	10041.19
878.67	10123.11
879.08	9871.21
879.49	9742.19
879.90	9504.62
880.31	9944.94
880.71	9551.73
881.12	9529.20
881.53	9414.51
881.94	9408.37
882.35	9260.91
882.75	9179.00
883.16	9191.28
883.57	9234.29
883.98	9103.22
884.38	8988.53
884.79	8994.68
885.20	9097.08
885.61	8998.77
886.02	9017.21
886.42	9127.80
886.83	8939.38
887.24	8892.28
887.65	8738.68
888.05	8527.74
888.46	8531.84
888.87	8398.72
889.28	8624.00
889.68	8566.65
890.09	8820.60
890.50	8591.23
890.91	8613.76
891.31	8429.44
891.72	8728.44
892.13	8300.42
892.53	8423.30
892.94	8552.32
893.35	8343.42
893.76	8333.18
894.16	7847.82
894.57	7997.32
894.98	8028.04
895.38	8077.19
895.79	8212.35
896.20	7923.59
896.61	8159.11
897.01	7894.92
897.42	8058.76
897.83	7690.12
898.23	7841.67
898.64	7704.46
899.05	7681.93
899.45	7714.70
899.86	7788.43
900.27	7544.72
900.67	7589.77
901.08	7690.12
901.49	7577.48
901.89	7419.79
902.30	7614.35
902.71	7210.90
903.11	7542.67
903.52	7495.57
903.93	7427.98
904.33	7384.98
904.74	7206.80
905.15	7049.11
905.55	7378.83
905.96	7143.32
906.36	7171.99
906.77	7065.49
907.18	7174.03
907.58	6977.43
907.99	7034.77
908.40	7065.49
908.80	6858.65
909.21	6850.46
909.61	6815.64
910.02	6842.26
910.43	7014.29
910.83	6829.98
911.24	7217.04
911.64	6797.21
912.05	6850.46
912.46	6662.04
912.86	6864.79
913.27	6608.80
913.67	6594.46
914.08	6514.59
914.48	6653.85
914.89	6547.36
915.30	6649.75
915.70	6459.29
916.11	6451.10
916.51	6332.32
916.92	6479.77
917.32	6383.52
917.73	6537.12
918.14	6268.83
918.54	6533.02
918.95	6348.70
919.35	6408.09
919.76	6086.56
920.16	6223.78
920.57	6047.65
920.97	6072.23
921.38	5609.39
921.78	5932.97
922.19	5648.30
922.59	5760.94
923.00	5601.19
923.41	5638.06
923.81	5554.09
924.22	5353.39
924.62	5377.97
925.03	5189.55
925.43	5064.63
925.84	5367.73
926.24	4992.95
926.65	5085.11
927.05	4847.54
927.46	4847.54
927.86	4532.15
928.27	4827.06
928.67	4399.04
929.08	4401.08
929.48	4143.04
929.88	4143.04
930.29	4040.64
930.69	3903.43
931.10	3710.92
931.50	3762.12
931.91	3416.01
932.31	3475.40
932.72	3147.73
933.12	3213.26
933.53	2787.29
933.93	2887.64
934.34	2691.03
934.74	2676.70
935.14	2136.03
935.55	2205.66
935.95	1908.71
936.36	1906.66
936.76	1642.47
937.17	1566.70
937.57	1333.23
937.97	1265.64
938.38	989.17
938.78	1116.14
939.19	870.39
939.59	854.00
940.00	767.99
940.40	645.11
940.80	505.85
941.21	575.48
941.61	438.27
942.02	425.98
942.42	354.30
942.82	270.33
943.23	235.52
943.63	346.11
944.04	178.17
944.44	200.70
944.84	182.27
945.25	165.89
945.65	165.89
946.05	153.60
946.46	180.22
946.86	151.55
947.26	180.22
947.67	149.50
948.07	186.37
948.48	176.13
948.88	122.88
949.28	202.75
949.69	206.84
950.09	102.40
950.49	102.40
950.90	116.73
951.30	114.69
951.70	129.02
952.11	139.26
952.51	75.77
952.91	69.63
953.32	178.17
953.72	151.55
954.12	86.01
954.53	110.59
954.93	135.17
955.33	229.37
955.74	188.41
956.14	159.74
956.54	196.61
956.94	114.69
957.35	200.70
957.75	155.65
958.15	167.93
958.56	182.27
958.96	86.01
959.36	186.37
959.76	206.84
960.17	157.69
960.57	104.45
960.97	114.69
961.38	176.13
961.78	165.89
962.18	229.37
962.58	184.32
962.99	241.66
963.39	129.02
963.79	163.84
964.19	149.50
964.60	217.08
965.00	192.51
965.40	239.61
965.80	126.97
966.21	139.26
966.61	194.56
967.01	184.32
967.41	165.89
967.81	167.93
968.22	81.92
968.62	204.80
969.02	155.65
969.42	233.47
969.83	202.75
970.23	176.13
970.63	147.45
971.03	159.74
971.43	106.49
971.84	176.13
972.24	159.74
972.64	194.56
973.04	71.68
973.44	163.84
973.85	63.49
974.25	151.55
974.65	120.83
975.05	169.98
975.45	16.38
975.85	221.18
976.26	151.55
976.66	186.37
977.06	108.54
977.46	159.74
977.86	106.49
978.26	286.72
978.67	100.35
979.07	147.45
979.47	98.30
979.87	120.83
980.27	61.44
980.67	96.25
981.07	135.17
981.48	227.32
981.88	73.73
982.28	92.16
982.68	16.38
983.08	139.26
983.48	186.37
983.88	192.51
984.29	159.74
984.69	118.78
985.09	129.02
985.49	190.46
985.89	137.21
986.29	239.61
986.69	184.32
987.09	86.01
987.49	163.84
987.89	217.08
988.30	159.74
988.70	202.75
989.10	151.55
989.50	120.83
989.90	133.12
990.30	159.74
990.70	143.36
991.10	63.49
991.50	147.45
991.90	163.84
992.30	75.77
992.70	141.31
993.10	126.97
993.50	165.89
993.91	129.02
994.31	124.93
994.71	67.58
995.11	104.45
995.51	83.97
995.91	159.74
996.31	118.78
996.71	131.07
997.11	73.73
997.51	65.54
997.91	67.58
998.31	165.89
998.71	83.97
999.11	165.89
999.51	100.35
999.91	167.93
1000.31	98.30
1000.71	24.58
1001.11	126.97
1001.51	94.21
1001.91	120.83
1002.31	92.16
1002.71	96.25
1003.11	36.86
1003.51	120.83
1003.91	118.78
1004.31	96.25
1004.71	131.07
1005.11	61.44
1005.51	30.72
1005.91	83.97
1006.31	57.34
1006.71	145.41
1007.11	77.82
1007.51	77.82
1007.91	108.54
1008.31	14.34
1008.71	106.49
1009.11	112.64
1009.51	110.59
1009.91	139.26
1010.30	-4.10
1010.70	6.14
1011.10	151.55
1011.50	110.59
1011.90	98.30
1012.30	61.44
1012.70	61.44
1013.10	141.31
1013.50	92.16
1013.90	163.84
1014.30	32.77
1014.70	126.97
1015.10	53.25
1015.50	53.25
1015.89	176.13
1016.29	26.62
1016.69	129.02
1017.09	81.92
1017.49	73.73
1017.89	43.01
1018.29	51.20
1018.69	53.25
1019.09	135.17
1019.48	69.63
1019.88	-18.43
1020.28	49.15
1020.68	129.02
1021.08	47.10
1021.48	94.21
1021.88	88.06
1022.28	88.06
1022.67	28.67
1023.07	-6.14
1023.47	-26.62
1023.87	59.39
1024.27	96.25
1024.67	116.73
1025.07	4.10
1025.46	108.54
1025.86	-53.25
1026.26	16.38
1026.66	-14.34
1027.06	-45.06
1027.46	-12.29
1027.85	71.68
1028.25	86.01
1028.65	18.43
1029.05	-43.01
1029.45	102.40
1029.85	65.53
1030.24	14.34
1030.64	28.67
1031.04	90.11
1031.44	10.24
1031.84	-38.91
1032.23	131.07
1032.63	53.25
1033.03	108.54
1033.43	-18.43
1033.83	71.68
1034.22	-10.24
1034.62	55.30
1035.02	12.29
1035.42	69.63
1035.81	114.69
1036.21	65.54
1036.61	32.77
1037.01	-38.91
1037.41	20.48
1037.80	-4.10
1038.20	36.86
1038.60	4.10
1039.00	-32.77
1039.39	118.78
1039.79	108.54
1040.19	-16.38
1040.59	-14.34
1040.98	-65.54
1041.38	-22.53
1041.78	36.86
1042.17	12.29
1042.57	79.87
1042.97	71.68
1043.37	83.97
1043.76	100.35
1044.16	53.25
1044.56	53.25
1044.96	-4.10
1045.35	36.86
1045.75	92.16
1046.15	45.06
1046.54	49.15
1046.94	-6.14
1047.34	79.87
1047.73	-34.82
1048.13	-40.96
1048.53	86.01
1048.93	63.49
1049.32	63.49
1049.72	77.82
1050.12	77.82
1050.51	81.92
1050.91	38.91
1051.31	-26.62
1051.70	104.45
1052.10	43.01
1052.50	38.91
1052.89	51.20
1053.29	32.77
1053.69	20.48
1054.08	81.92
1054.48	120.83
1054.87	-30.72
1055.27	18.43
1055.67	38.91
1056.06	32.77
1056.46	71.68
1056.86	-26.62
1057.25	38.91
1057.65	129.02
1058.05	63.49
1058.44	-49.15
1058.84	26.62
1059.23	94.21
1059.63	-12.29
1060.03	88.06
1060.42	69.63
1060.82	149.50
1061.21	106.49
1061.61	22.53
1062.01	-32.77
1062.40	36.86
1062.80	51.20
1063.19	65.54
1063.59	-49.15
1063.99	47.10
1064.38	45.06
1064.78	57.34
1065.17	69.63
1065.57	0.00
1065.97	6.14
1066.36	20.48
1066.76	94.21
1067.15	30.72
1067.55	-40.96
1067.94	-51.20
1068.34	-36.86
1068.73	26.62
1069.13	28.67
1069.53	43.01
1069.92	34.82
1070.32	77.82
1070.71	57.34
1071.11	45.06
1071.50	81.92
1071.90	88.06
1072.29	12.29
1072.69	86.01
1073.08	75.77
1073.48	-38.91
1073.87	12.29
1074.27	49.15
1074.66	-20.48
1075.06	110.59
1075.45	118.78
1075.85	77.82
1076.24	51.20
1076.64	2.05
1077.03	6.14
1077.43	-26.62
1077.82	6.14
1078.22	57.34
1078.61	16.38
1079.01	-28.67
1079.40	-12.29
1079.80	-79.87
1080.19	-43.01
1080.59	30.72
1080.98	45.06
1081.38	49.15
1081.77	-45.06
1082.17	67.58
1082.56	-47.10
1082.96	38.91
1083.35	12.29
1083.75	-16.38
1084.14	10.24
1084.53	14.34
1084.93	-2.05
1085.32	-75.77
1085.72	110.59
1086.11	92.16
1086.51	40.96
1086.90	47.10
1087.30	-30.72
1087.69	-47.10
1088.08	38.91
1088.48	2.05
1088.87	38.91
1089.27	-8.19
1089.66	-4.10
1090.05	38.91
1090.45	45.06
1090.84	-32.77
1091.24	-32.77
1091.63	14.34
1092.02	98.30
1092.42	59.39
1092.81	49.15
1093.21	45.06
1093.60	-14.34
1093.99	116.73
1094.39	45.06
1094.78	22.53
1095.18	145.41
1095.57	-34.82
1095.96	55.30
1096.36	-22.53
1096.75	108.54
1097.14	36.86
1097.54	61.44
1097.93	22.53
1098.32	40.96
1098.72	63.49
1099.11	-26.62
1099.50	0.00
1099.90	-69.63
1100.29	-16.38
1100.69	106.49
1101.08	-12.29
1101.47	-71.68
1101.87	22.53
1102.26	30.72
1102.65	108.54
1103.04	18.43
1103.44	-14.34
1103.83	40.96
1104.22	40.96
1104.62	81.92
1105.01	30.72
1105.40	92.16
1105.80	55.30
1106.19	-2.05
1106.58	6.14
1106.98	49.15
1107.37	88.06
1107.76	40.96
1108.15	137.21
1108.55	45.06
1108.94	79.87
1109.33	55.30
1109.73	98.30
1110.12	-2.05
1110.51	100.35
1110.90	49.15
1111.30	4.10
1111.69	55.30
1112.08	-65.54
1112.47	141.31
1112.87	126.97
1113.26	-36.86
1113.65	-8.19
1114.04	102.40
1114.44	90.11
1114.83	-34.82
1115.22	-61.44
1115.61	98.30
1116.01	24.58
1116.40	77.82
1116.79	96.25
1117.18	-30.72
1117.58	-22.53
1117.97	-10.24
1118.36	51.20
1118.75	149.50
1119.14	-86.01
1119.54	-36.86
1119.93	-47.10
1120.32	-14.34
1120.71	65.53
1121.10	40.96
1121.50	36.86
1121.89	-34.82
1122.28	172.03
1122.67	69.63
1123.06	104.45
1123.46	36.86
1123.85	-36.86
1124.24	-8.19
1124.63	8.19
1125.02	98.30
1125.41	90.11
1125.81	-135.17
1126.20	-4.10
1126.59	-106.49
1126.98	-143.36
1127.37	-32.77
1127.76	36.86
1128.16	110.59
1128.55	96.25
1128.94	32.77
1129.33	-36.86
1129.72	30.72
1130.11	2.05
1130.50	18.43
1130.90	81.92
1131.29	92.16
1131.68	-100.35
1132.07	-75.77
1132.46	90.11
1132.85	92.16
1133.24	40.96
1133.63	-45.06
1134.03	65.53
1134.42	30.72
1134.81	14.34
1135.20	-32.77
1135.59	-10.24
1135.98	-20.48
1136.37	47.10
1136.76	16.38
1137.15	47.10
1137.54	38.91
1137.94	34.82
1138.33	65.54
1138.72	90.11
1139.11	30.72
1139.50	2.05
1139.89	-24.58
1140.28	16.38
1140.67	77.82
1141.06	-8.19
1141.45	-20.48
1141.84	73.73
1142.23	-18.43
1142.62	8.19
1143.01	69.63
1143.40	24.58
1143.80	122.88
1144.19	6.14
1144.58	-4.10
1144.97	-51.20
1145.36	61.44
1145.75	112.64
1146.14	96.25
1146.53	63.49
1146.92	36.86
1147.31	53.25
1147.70	-8.19
1148.09	-10.24
1148.48	-34.82
1148.87	26.62
1149.26	75.77
1149.65	-34.82
1150.04	86.01
1150.43	30.72
1150.82	96.25
1151.21	75.77
1151.60	4.10
1151.99	6.14
1152.38	-28.67
1152.77	-30.72
1153.16	6.14
1153.55	43.01
1153.94	-12.29
1154.33	14.34
1154.72	26.62
1155.11	120.83
1155.50	38.91
1155.89	45.06
1156.28	38.91
1156.67	98.30
1157.06	24.58
1157.44	-2.05
1157.83	28.67
1158.22	12.29
1158.61	-38.91
1159.00	34.82
1159.39	-2.05
1159.78	26.62
1160.17	-6.14
1160.56	-8.19
1160.95	30.72
1161.34	151.55
1161.73	14.34
1162.12	-14.34
1162.51	-32.77
1162.90	61.44
1163.28	-30.72
1163.67	-14.34
1164.06	67.58
1164.45	6.14
1164.84	61.44
1165.23	79.87
1165.62	32.77
1166.01	-30.72
1166.40	22.53
1166.79	92.16
1167.17	2.05
1167.56	108.54
1167.95	51.20
1168.34	90.11
1168.73	40.96
1169.12	16.38
1169.51	55.30
1169.90	77.82
1170.28	10.24
1170.67	83.97
1171.06	0.00
1171.45	57.34
1171.84	131.07
1172.23	55.30
1172.62	-69.63
1173.00	-6.14
1173.39	-36.86
1173.78	88.06
1174.17	137.21
1174.56	22.53
1174.95	151.55
1175.33	36.86
1175.72	-61.44
1176.11	122.88
1176.50	-16.38
1176.89	63.49
1177.28	24.58
1177.66	24.58
1178.05	40.96
1178.44	53.25
1178.83	143.36
1179.22	79.87
1179.60	63.49
1179.99	-59.39
1180.38	90.11
1180.77	36.86
1181.16	-18.43
1181.54	32.77
1181.93	71.68
1182.32	-53.25
1182.71	-34.82
1183.09	47.10
1183.48	20.48
1183.87	55.30
1184.26	36.86
1184.65	12.29
1185.03	16.38
1185.42	77.82
1185.81	118.78
1186.20	4.10
1186.58	28.67
1186.97	12.29
1187.36	30.72
1187.75	43.01
1188.13	106.49
1188.52	88.06
1188.91	34.82
1189.30	-12.29
1189.68	43.01
1190.07	26.62
1190.46	36.86
1190.84	0.00
1191.23	30.72
1191.62	55.30
1192.01	120.83
1192.39	-6.14
1192.78	40.96
1193.17	-6.14
1193.55	28.67
1193.94	0.00
1194.33	116.73
1194.72	12.29
1195.10	94.21
1195.49	182.27
1195.88	94.21
1196.26	88.06
1196.65	16.38
1197.04	-71.68
1197.42	28.67
1197.81	30.72
1198.20	34.82
1198.58	18.43
1198.97	45.06
1199.36	32.77
1199.74	51.20
1200.13	43.01
1200.52	131.07
1200.90	47.10
1201.29	98.30
1201.68	81.92
1202.06	8.19
1202.45	106.49
1202.84	102.40
1203.22	55.30
1203.61	92.16
1203.99	55.30
1204.38	28.67
1204.77	55.30
1205.15	49.15
1205.54	-45.06
1205.93	57.34
1206.31	51.20
1206.70	53.25
1207.08	100.35
1207.47	36.86
1207.86	106.49
1208.24	81.92
1208.63	-55.30
1209.01	26.62
1209.40	71.68
1209.79	67.58
1210.17	57.34
1210.56	43.01
1210.94	-22.53
1211.33	61.44
1211.72	45.06
1212.10	12.29
1212.49	110.59
1212.87	98.30
1213.26	96.25
1213.64	43.01
1214.03	55.30
1214.42	38.91
1214.80	67.58
1215.19	38.91
1215.57	-30.72
1215.96	86.01
1216.34	-57.34
1216.73	90.11
1217.11	59.39
1217.50	137.21
1217.89	116.73
1218.27	71.68
1218.66	120.83
1219.04	104.45
1219.43	71.68
1219.81	69.63
1220.20	36.86
1220.58	133.12
1220.97	45.06
1221.35	-51.20
1221.74	6.14
1222.12	18.43
1222.51	20.48
1222.89	43.01
1223.28	18.43
1223.66	118.78
1224.05	28.67
1224.43	53.25
1224.82	45.06
1225.20	104.45
1225.59	14.34
1225.97	36.86
1226.36	59.39
1226.74	28.67
1227.13	92.16
1227.51	108.54
1227.90	-30.72
1228.28	75.77
1228.66	-6.14
1229.05	26.62
1229.43	14.34
1229.82	69.63
1230.20	32.77
1230.59	36.86
1230.97	32.77
1231.36	122.88
1231.74	122.88
1232.13	135.17
1232.51	83.97
1232.89	122.88
1233.28	-10.24
1233.66	73.73
1234.05	38.91
1234.43	43.01
1234.82	18.43
1235.20	61.44
1235.58	135.17
1235.97	114.69
1236.35	67.58
1236.74	145.41
1237.12	6.14
1237.50	153.60
1237.89	-45.06
1238.27	-12.29
1238.66	83.97
1239.04	61.44
1239.42	149.50
1239.81	22.53
1240.19	36.86
1240.58	79.87
1240.96	100.35
1241.34	133.12
1241.73	126.97
1242.11	88.06
1242.49	120.83
1242.88	65.54
1243.26	53.25
1243.64	36.86
1244.03	112.64
1244.41	120.83
1244.80	100.35
1245.18	79.87
1245.56	32.77
1245.95	141.31
1246.33	102.40
1246.71	129.02
1247.10	-43.01
1247.48	71.68
1247.86	106.49
1248.25	200.70
1248.63	133.12
1249.01	96.25
1249.40	-36.86
1249.78	110.59
1250.16	55.30
1250.55	6.14
1250.93	40.96
1251.31	16.38
1251.69	2.05
1252.08	8.19
1252.46	137.21
1252.84	20.48
1253.23	129.02
1253.61	61.44
1253.99	59.39
1254.37	110.59
1254.76	36.86
1255.14	81.92
1255.52	28.67
1255.91	149.50
1256.29	40.96
1256.67	118.78
1257.05	32.77
1257.44	141.31
1257.82	83.97
1258.20	40.96
1258.58	30.72
1258.97	90.11
1259.35	110.59
1259.73	178.17
1260.11	178.17
1260.50	96.25
1260.88	98.30
1261.26	96.25
1261.64	100.35
1262.03	186.37
1262.41	71.68
1262.79	69.63
1263.17	83.97
1263.56	167.93
1263.94	133.12
1264.32	182.27
1264.70	14.34
1265.08	61.44
1265.47	73.73
1265.85	133.12
1266.23	81.92
1266.61	67.58
1266.99	12.29
1267.38	79.87
1267.76	79.87
1268.14	65.53
1268.52	110.59
1268.90	114.69
1269.29	92.16
1269.67	86.01
1270.05	104.45
1270.43	77.82
1270.81	77.82
1271.19	26.62
1271.58	57.34
1271.96	34.82
1272.34	49.15
1272.72	86.01
1273.10	104.45
1273.48	114.69
1273.86	43.01
1274.25	116.73
1274.63	92.16
1275.01	61.44
1275.39	165.89
1275.77	126.97
1276.15	108.54
1276.53	53.25
1276.92	51.20
1277.30	98.30
1277.68	147.45
1278.06	104.45
1278.44	120.83
1278.82	112.64
1279.20	104.45
1279.58	55.30
1279.97	86.01
1280.35	69.63
1280.73	81.92
1281.11	165.89
1281.49	94.21
1281.87	139.26
1282.25	63.49
1282.63	67.58
1283.01	94.21
1283.39	10.24
1283.77	20.48
1284.16	143.36
1284.54	67.58
1284.92	276.48
1285.30	184.32
1285.68	135.17
1286.06	112.64
1286.44	159.74
1286.82	22.53
1287.20	45.06
1287.58	169.98
1287.96	43.01
1288.34	90.11
1288.72	129.02
1289.10	92.16
1289.48	57.34
1289.86	14.34
1290.24	90.11
1290.62	83.97
1291.00	26.62
1291.38	96.25
1291.77	59.39
1292.15	186.37
1292.53	96.25
1292.91	88.06
1293.29	198.65
1293.67	147.45
1294.05	98.30
1294.43	182.27
1294.81	81.92
1295.19	83.97
1295.57	81.92
1295.95	-10.24
1296.33	98.30
1296.71	110.59
1297.09	65.54
1297.47	100.35
1297.85	61.44
1298.23	43.01
1298.60	227.32
1298.98	57.34
1299.36	188.41
1299.74	194.56
1300.12	161.79
1300.50	104.45
1300.88	110.59
1301.26	96.25
1301.64	147.45
1302.02	217.08
1302.40	217.08
1302.78	57.34
1303.16	163.84
1303.54	129.02
1303.92	114.69
1304.30	110.59
1304.68	122.88
1305.06	147.45
1305.44	133.12
1305.82	118.78
1306.19	122.88
1306.57	139.26
1306.95	206.84
1307.33	155.65
1307.71	120.83
1308.09	182.27
1308.47	155.65
1308.85	102.40
1309.23	77.82
1309.61	174.08
1309.99	59.39
1310.36	143.36
1310.74	75.77
1311.12	98.30
1311.50	229.37
1311.88	79.87
1312.26	106.49
1312.64	88.06
1313.02	120.83
1313.39	165.89
1313.77	133.12
1314.15	114.69
1314.53	169.98
1314.91	106.49
1315.29	196.61
1315.67	206.84
1316.05	141.31
1316.42	96.25
1316.80	258.04
1317.18	167.93
1317.56	120.83
1317.94	155.65
1318.32	151.55
1318.69	98.30
1319.07	182.27
1319.45	145.41
1319.83	163.84
1320.21	147.45
1320.59	45.06
1320.96	92.16
1321.34	172.03
1321.72	196.61
1322.10	202.75
1322.48	112.64
1322.85	98.30
1323.23	98.30
1323.61	40.96
1323.99	139.26
1324.37	178.17
1324.74	219.13
1325.12	6.14
1325.50	231.42
1325.88	165.89
1326.26	51.20
1326.63	90.11
1327.01	94.21
1327.39	122.88
1327.77	157.69
1328.14	188.41
1328.52	135.17
1328.90	83.97
1329.28	86.01
1329.66	155.65
1330.03	176.13
1330.41	235.52
1330.79	133.12
1331.17	116.73
1331.54	124.93
1331.92	163.84
1332.30	112.64
1332.67	141.31
1333.05	215.04
1333.43	204.80
1333.81	131.07
1334.18	163.84
1334.56	104.45
1334.94	55.30
1335.32	149.50
1335.69	225.28
1336.07	180.22
1336.45	194.56
1336.82	186.37
1337.20	245.76
1337.58	159.74
1337.96	47.10
1338.33	108.54
1338.71	157.69
1339.09	174.08
1339.46	129.02
1339.84	59.39
1340.22	221.18
1340.59	180.22
1340.97	172.03
1341.35	155.65
1341.72	174.08
1342.10	188.41
1342.48	172.03
1342.85	102.40
1343.23	219.13
1343.61	163.84
1343.98	165.89
1344.36	26.62
1344.74	184.32
1345.11	116.73
1345.49	235.52
1345.87	253.95
1346.24	165.89
1346.62	210.94
1347.00	122.88
1347.37	186.37
1347.75	229.37
1348.12	258.04
1348.50	178.17
1348.88	147.45
1349.25	172.03
1349.63	94.21
1350.00	163.84
1350.38	133.12
1350.76	118.78
1351.13	137.21
1351.51	212.99
1351.89	139.26
1352.26	174.08
1352.64	155.65
1353.01	182.27
1353.39	106.49
1353.76	167.93
1354.14	182.27
1354.52	126.97
1354.89	94.21
1355.27	278.52
1355.64	204.80
1356.02	241.66
1356.40	133.12
1356.77	172.03
1357.15	280.57
1357.52	126.97
1357.90	147.45
1358.27	157.69
1358.65	167.93
1359.02	231.42
1359.40	190.46
1359.78	208.89
1360.15	120.83
1360.53	153.60
1360.90	225.28
1361.28	247.80
1361.65	178.17
1362.03	200.70
1362.40	77.82
1362.78	165.89
1363.15	180.22
1363.53	176.13
1363.90	169.98
1364.28	239.61
1364.65	94.21
1365.03	194.56
1365.40	196.61
1365.78	106.49
1366.15	139.26
1366.53	176.13
1366.90	122.88
1367.28	190.46
1367.65	145.41
1368.03	192.51
1368.40	192.51
1368.78	182.27
1369.15	225.28
1369.53	225.28
1369.90	163.84
1370.28	186.37
1370.65	67.58
1371.03	149.50
1371.40	86.01
1371.78	239.61
1372.15	118.78
1372.53	317.44
1372.90	196.60
1373.27	200.70
1373.65	167.93
1374.02	151.55
1374.40	231.42
1374.77	79.87
1375.15	188.41
1375.52	206.84
1375.89	116.73
1376.27	239.61
1376.64	256.00
1377.02	143.36
1377.39	159.74
1377.77	206.84
1378.14	202.75
1378.51	247.80
1378.89	243.71
1379.26	163.84
1379.64	143.36
1380.01	198.65
1380.38	221.18
1380.76	147.45
1381.13	169.98
1381.51	231.42
1381.88	233.47
1382.25	231.42
1382.63	126.97
1383.00	157.69
1383.38	73.73
1383.75	172.03
1384.12	245.76
1384.50	186.37
1384.87	202.75
1385.24	157.69
1385.62	278.52
1385.99	163.84
1386.36	161.79
1386.74	151.55
1387.11	88.06
1387.49	131.07
1387.86	202.75
1388.23	151.55
1388.61	110.59
1388.98	217.08
1389.35	245.76
1389.73	155.65
1390.10	151.55
1390.47	194.56
1390.85	147.45
1391.22	174.08
1391.59	219.13
1391.96	229.37
1392.34	155.65
1392.71	118.78
1393.08	151.55
1393.46	167.93
1393.83	133.12
1394.20	178.17
1394.58	120.83
1394.95	270.33
1395.32	194.56
1395.70	114.69
1396.07	137.21
1396.44	202.75
1396.81	186.37
1397.19	174.08
1397.56	155.65
1397.93	274.43
1398.30	167.93
1398.68	296.96
1399.05	204.80
1399.42	260.09
1399.80	190.46
1400.17	131.07
1400.54	137.21
1400.91	227.32
1401.29	120.83
1401.66	251.90
1402.03	253.95
1402.40	174.08
1402.78	118.78
1403.15	159.74
1403.52	174.08
1403.89	159.74
1404.26	219.13
1404.64	155.65
1405.01	204.80
1405.38	135.17
1405.75	204.80
1406.13	219.13
1406.50	133.12
1406.87	133.12
1407.24	210.94
1407.61	210.94
1407.99	217.08
1408.36	174.08
1408.73	174.08
1409.10	163.84
1409.47	145.41
1409.85	159.74
1410.22	165.89
1410.59	161.79
1410.96	169.98
1411.33	149.50
1411.70	135.17
1412.08	155.65
1412.45	88.06
1412.82	165.89
1413.19	104.45
1413.56	163.84
1413.93	161.79
1414.31	165.89
1414.68	47.10
1415.05	206.84
1415.42	219.13
1415.79	202.75
1416.16	149.50
1416.54	153.60
1416.91	186.37
1417.28	204.80
1417.65	135.17
1418.02	202.75
1418.39	172.03
1418.76	96.25
1419.13	262.14
1419.51	176.13
1419.88	149.50
1420.25	149.50
1420.62	159.74
1420.99	139.26
1421.36	202.75
1421.73	215.04
1422.10	55.30
1422.47	215.04
1422.85	143.36
1423.22	206.84
1423.59	147.45
1423.96	180.22
1424.33	92.16
1424.70	227.32
1425.07	126.97
1425.44	245.76
1425.81	129.02
1426.18	108.54
1426.55	258.04
1426.92	126.97
1427.29	139.26
1427.67	129.02
1428.04	133.12
1428.41	204.80
1428.78	167.93
1429.15	139.26
1429.52	147.45
1429.89	155.65
1430.26	38.91
1430.63	88.06
1431.00	188.41
1431.37	153.60
1431.74	108.54
1432.11	108.54
1432.48	186.37
1432.85	98.30
1433.22	151.55
1433.59	102.40
1433.96	161.79
1434.33	292.86
1434.70	126.97
1435.07	161.79
1435.44	104.45
1435.81	180.22
1436.18	81.92
1436.55	141.31
1436.92	174.08
1437.29	151.55
1437.66	178.17
1438.03	143.36
1438.40	190.46
1438.77	43.01
1439.14	163.84
1439.51	75.77
1439.88	141.31
1440.25	192.51
1440.62	110.59
1440.99	96.25
1441.36	204.80
1441.73	71.68
1442.10	137.21
1442.47	217.08
1442.84	69.63
1443.21	219.13
1443.58	69.63
1443.95	96.25
1444.32	131.07
1444.68	67.58
1445.05	81.92
1445.42	108.54
1445.79	40.96
1446.16	190.46
1446.53	47.10
1446.90	96.25
1447.27	139.26
1447.64	169.98
1448.01	124.93
1448.38	141.31
1448.75	73.73
1449.12	169.98
1449.48	47.10
1449.85	90.11
1450.22	71.68
1450.59	159.74
1450.96	139.26
1451.33	24.58
1451.70	94.21
1452.07	106.49
1452.44	178.17
1452.80	114.69
1453.17	63.49
1453.54	43.01
1453.91	96.25
1454.28	28.67
1454.65	100.35
1455.02	120.83
1455.39	108.54
1455.75	-73.73
1456.12	180.22
1456.49	57.34
1456.86	-6.14
1457.23	112.64
1457.60	139.26
1457.96	153.60
1458.33	81.92
1458.70	24.58
1459.07	51.20
1459.44	32.77
1459.81	102.40
1460.17	114.69
1460.54	88.06
1460.91	55.30
1461.28	12.29
1461.65	67.58
1462.02	6.14
1462.38	163.84
1462.75	131.07
1463.12	94.21
1463.49	-26.62
1463.86	65.54
1464.22	112.64
1464.59	16.38
1464.96	102.40
1465.33	94.21
1465.70	24.58
1466.06	98.30
1466.43	-53.25
1466.80	75.77
1467.17	73.73
1467.53	18.43
1467.90	59.39
1468.27	122.88
1468.64	-4.10
1469.01	81.92
1469.37	53.25
1469.74	-34.82
1470.11	120.83
1470.48	98.30
1470.84	40.96
1471.21	112.64
1471.58	81.92
1471.95	77.82
1472.31	67.58
1472.68	61.44
1473.05	30.72
1473.41	61.44
1473.78	112.64
1474.15	79.87
1474.52	106.49
1474.88	73.73
1475.25	67.58
1475.62	0.00
1475.99	26.62
1476.35	51.20
1476.72	118.78
1477.09	79.87
1477.45	63.49
1477.82	-8.19
1478.19	104.45
1478.55	161.79
1478.92	30.72
1479.29	137.21
1479.66	90.11
1480.02	28.67
1480.39	106.49
1480.76	75.77
1481.12	20.48
1481.49	126.97
1481.86	45.06
1482.22	63.49
1482.59	149.50
1482.96	147.45
1483.32	174.08
1483.69	135.17
1484.06	71.68
1484.42	108.54
1484.79	94.21
1485.15	159.74
1485.52	63.49
1485.89	126.97
1486.25	36.86
1486.62	49.15
1486.99	34.82
1487.35	114.69
1487.72	86.01
1488.09	83.97
1488.45	88.06
1488.82	176.13
1489.18	20.48
1489.55	102.40
1489.92	131.07
1490.28	176.13
1490.65	104.45
1491.01	94.21
1491.38	71.68
1491.75	141.31
1492.11	43.01
1492.48	86.01
1492.84	83.97
1493.21	92.16
1493.58	200.70
1493.94	90.11
1494.31	153.60
1494.67	4.10
1495.04	75.77
1495.40	98.30
1495.77	47.10
1496.14	63.49
1496.50	137.21
1496.87	-47.10
1497.23	79.87
1497.60	57.34
1497.96	-22.53
1498.33	135.17
1498.70	67.58
1499.06	155.65
1499.43	159.74
1499.79	32.77
1500.16	141.31
1500.52	104.45
1500.89	71.68
1501.25	34.82
1501.62	88.06
1501.98	55.30
1502.35	102.40
1502.71	40.96
1503.08	36.86
1503.44	4.10
1503.81	57.34
1504.17	108.54
1504.54	96.25
1504.90	49.15
1505.27	102.40
1505.63	71.68
1506.00	83.97
1506.36	131.07
1506.73	71.68
1507.09	106.49
1507.46	-10.24
1507.82	32.77
1508.19	18.43
1508.55	122.88
1508.92	28.67
1509.28	-57.34
1509.65	38.91
1510.01	18.43
1510.38	-20.48
1510.74	28.67
1511.11	32.77
1511.47	96.25
1511.83	81.92
1512.20	24.58
1512.56	149.50
1512.93	79.87
1513.29	92.16
1513.66	49.15
1514.02	65.53
1514.39	18.43
1514.75	2.05
1515.11	57.34
1515.48	159.74
1515.84	57.34
1516.21	61.44
1516.57	45.06
1516.94	63.49
1517.30	71.68
1517.66	18.43
1518.03	32.77
1518.39	65.54
1518.76	65.53
1519.12	22.53
1519.48	79.87
1519.85	63.49
1520.21	-28.67
1520.58	57.34
1520.94	-14.34
1521.30	51.20
1521.67	94.21
1522.03	-6.14
1522.39	49.15
1522.76	106.49
1523.12	77.82
1523.49	112.64
1523.85	47.10
1524.21	16.38
1524.58	28.67
1524.94	40.96
1525.30	-40.96
1525.67	-4.10
1526.03	157.69
1526.39	65.54
1526.76	-16.38
1527.12	36.86
1527.48	-100.35
1527.85	-22.53
1528.21	102.40
1528.57	34.82
1528.94	-106.49
1529.30	92.16
1529.66	-36.86
1530.03	47.10
1530.39	28.67
1530.75	18.43
1531.12	38.91
1531.48	47.10
1531.84	36.86
1532.21	4.10
1532.57	77.82
1532.93	-2.05
1533.29	55.30
1533.66	8.19
1534.02	-36.86
1534.38	30.72
1534.75	14.34
1535.11	-4.10
1535.47	47.10
1535.83	-24.58
1536.20	24.58
1536.56	40.96
1536.92	53.25
1537.28	28.67
1537.65	137.21
1538.01	53.25
1538.37	10.24
1538.74	63.49
1539.10	-49.15
1539.46	24.58
1539.82	45.06
1540.19	18.43
1540.55	-71.68
1540.91	-38.91
1541.27	0.00
1541.63	129.02
1542.00	-6.14
1542.36	8.19
1542.72	26.62
1543.08	-57.34
1543.45	86.01
1543.81	4.10
1544.17	18.43
1544.53	100.35
1544.89	-55.30
1545.26	102.40
1545.62	53.25
1545.98	71.68
1546.34	-20.48
1546.70	110.59
1547.07	69.63
1547.43	18.43
1547.79	-30.72
1548.15	-14.34
1548.51	20.48
1548.88	2.05
1549.24	-38.91
1549.60	40.96
1549.96	63.49
1550.32	149.50
1550.68	65.54
1551.05	20.48
1551.41	131.07
1551.77	-2.05
1552.13	18.43
1552.49	2.05
1552.85	75.77
1553.22	6.14
1553.58	-10.24
1553.94	10.24
1554.30	-26.62
1554.66	-20.48
1555.02	81.92
1555.38	20.48
1555.75	16.38
1556.11	26.62
1556.47	71.68
1556.83	-20.48
1557.19	36.86
1557.55	-4.10
1557.91	-2.05
1558.27	104.45
1558.63	-2.05
1559.00	65.53
1559.36	0.00
1559.72	-14.34
1560.08	14.34
1560.44	22.53
1560.80	-6.14
1561.16	18.43
1561.52	-30.72
1561.88	55.30
1562.24	-40.96
1562.60	-47.10
1562.97	51.20
1563.33	47.10
1563.69	16.38
1564.05	-8.19
1564.41	-18.43
1564.77	-32.77
1565.13	18.43
1565.49	16.38
1565.85	-14.34
1566.21	4.10
1566.57	20.48
1566.93	104.45
1567.29	-34.82
1567.65	40.96
1568.01	34.82
1568.37	-20.48
1568.73	57.34
1569.09	-131.07
1569.45	-2.05
1569.82	38.91
1570.18	73.73
1570.54	38.91
1570.90	-36.86
1571.26	-28.67
1571.62	14.34
1571.98	45.06
1572.34	18.43
1572.70	36.86
1573.06	-12.29
1573.42	20.48
1573.78	-8.19
1574.14	-86.01
1574.50	75.77
1574.86	102.40
1575.22	-40.96
1575.58	-36.86
1575.94	4.10
1576.30	-59.39
1576.66	38.91
1577.01	34.82
1577.37	51.20
1577.73	12.29
1578.09	53.25
1578.45	-43.01
1578.81	26.62
1579.17	-34.82
1579.53	147.45
1579.89	4.10
1580.25	55.30
1580.61	-20.48
1580.97	24.58
1581.33	36.86
1581.69	-8.19
1582.05	32.77
1582.41	-16.38
1582.77	2.05
1583.13	-34.82
1583.49	79.87
1583.84	10.24
1584.20	-30.72
1584.56	-67.58
1584.92	-61.44
1585.28	106.49
1585.64	81.92
1586.00	24.58
1586.36	83.97
1586.72	59.39
1587.08	51.20
1587.44	22.53
1587.79	18.43
1588.15	18.43
1588.51	69.63
1588.87	-32.77
1589.23	18.43
1589.59	-34.82
1589.95	73.73
1590.31	45.06
1590.66	-59.39
1591.02	-106.49
1591.38	30.72
1591.74	18.43
1592.10	45.06
1592.46	0.00
1592.82	57.34
1593.18	-32.77
1593.53	86.01
1593.89	-36.86
1594.25	-4.10
1594.61	24.58
1594.97	-2.05
1595.33	49.15
1595.68	90.11
1596.04	10.24
1596.40	88.06
1596.76	67.58
1597.12	10.24
1597.48	-65.54
1597.83	47.10
1598.19	-28.67
1598.55	0.00
1598.91	59.39
1599.27	112.64
1599.62	12.29
1599.98	-6.14
1600.34	-79.87
1600.70	51.20
1601.06	38.91
1601.41	12.29
1601.77	-28.67
1602.13	-65.53
1602.49	0.00
1602.85	28.67
1603.20	69.63
1603.56	-14.34
1603.92	-90.11
1604.28	45.06
1604.63	-67.58
1604.99	147.45
1605.35	34.82
1605.71	-45.06
1606.06	-36.86
1606.42	45.06
1606.78	73.73
1607.14	12.29
1607.49	-63.49
1607.85	-18.43
1608.21	-14.34
1608.57	40.96
1608.92	67.58
1609.28	-12.29
1609.64	-12.29
1610.00	22.53
1610.35	28.67
1610.71	47.10
1611.07	77.82
1611.43	-34.82
1611.78	-10.24
1612.14	118.78
1612.50	-10.24
1612.85	90.11
1613.21	10.24
1613.57	-8.19
1613.92	6.14
1614.28	18.43
1614.64	51.20
1615.00	-12.29
1615.35	81.92
1615.71	8.19
1616.07	-51.20
1616.42	65.54
1616.78	34.82
1617.14	34.82
1617.49	24.58
1617.85	12.29
1618.21	-53.25
1618.56	-61.44
1618.92	6.14
1619.28	-24.58
1619.63	12.29
1619.99	-61.44
1620.35	-63.49
1620.70	24.58
1621.06	53.25
1621.42	26.62
1621.77	10.24
1622.13	8.19
1622.48	-14.34
1622.84	34.82
1623.20	-38.91
1623.55	16.38
1623.91	-16.38
1624.27	32.77
1624.62	-10.24
1624.98	-16.38
1625.33	8.19
1625.69	-26.62
1626.05	55.30
1626.40	22.53
1626.76	8.19
1627.11	-100.35
1627.47	26.62
1627.83	-53.25
1628.18	4.10
1628.54	26.62
1628.89	53.25
1629.25	18.43
1629.61	22.53
1629.96	-47.10
1630.32	71.68
1630.67	49.15
1631.03	-57.34
1631.38	104.45
1631.74	10.24
1632.10	16.38
1632.45	47.10
1632.81	-59.39
1633.16	-10.24
1633.52	-53.25
1633.87	18.43
1634.23	-26.62
1634.58	-4.10
1634.94	-20.48
1635.30	71.68
1635.65	24.58
1636.01	12.29
1636.36	-26.62
1636.72	98.30
1637.07	81.92
1637.43	24.58
1637.78	24.58
1638.14	-26.62
1638.49	36.86
1638.85	16.38
1639.20	8.19
1639.56	-16.38
1639.91	63.49
1640.27	-4.10
1640.62	-14.34
1640.98	112.64
1641.33	73.73
1641.69	26.62
1642.04	16.38
1642.40	18.43
1642.75	-28.67
1643.11	-88.06
1643.46	30.72
1643.82	24.58
1644.17	0.00
1644.53	-10.24
1644.88	4.10
1645.24	83.97
1645.59	14.34
1645.94	22.53
1646.30	-12.29
1646.65	-26.62
1647.01	-40.96
1647.36	65.54
1647.72	-14.34
1648.07	20.48
1648.43	69.63
1648.78	-28.67
1649.14	22.53
1649.49	-20.48
1649.84	8.19
1650.20	-20.48
1650.55	14.34
1650.91	-53.25
1651.26	-20.48
1651.61	-24.58
1651.97	-2.05
1652.32	-43.01
1652.68	6.14
1653.03	24.58
1653.39	-81.92
1653.74	83.97
1654.09	-36.86
1654.45	28.67
1654.80	4.10
1655.16	34.82
1655.51	-43.01
1655.86	-10.24
1656.22	65.54
1656.57	-18.43
1656.92	-22.53
1657.28	4.10
1657.63	-22.53
1657.99	-12.29
1658.34	69.63
1658.69	-73.73
1659.05	67.58
1659.40	8.19
1659.75	-86.01
1660.11	10.24
1660.46	16.38
1660.81	0.00
1661.17	0.00
1661.52	-32.77
1661.87	-12.29
1662.23	-36.86
1662.58	0.00
1662.93	-32.77
1663.29	-59.39
1663.64	51.20
1663.99	-4.10
1664.35	-28.67
1664.70	-14.34
1665.05	71.68
1665.41	-38.91
1665.76	-16.38
1666.11	10.24
1666.47	59.39
1666.82	90.11
1667.17	-12.29
1667.52	-30.72
1667.88	36.86
1668.23	-61.44
1668.58	4.10
1668.94	67.58
1669.29	32.77
1669.64	45.06
1670.00	45.06
1670.35	-12.29
1670.70	6.14
1671.05	8.19
1671.41	26.62
1671.76	-79.87
1672.11	-36.86
1672.46	-45.06
1672.82	55.30
1673.17	6.14
1673.52	24.58
1673.87	-102.40
1674.23	63.49
1674.58	-14.34
1674.93	-30.72
1675.28	-45.06
1675.64	71.68
1675.99	86.01
1676.34	8.19
1676.69	47.10
1677.05	12.29
1677.40	-47.10
1677.75	-14.34
1678.10	79.87
1678.45	10.24
1678.81	-30.72
1679.16	-47.10
1679.51	-8.19
1679.86	-49.15
1680.21	18.43
1680.57	0.00
1680.92	59.39
1681.27	-24.58
1681.62	-79.87
1681.97	-4.10
1682.33	-55.30
1682.68	40.96
1683.03	-40.96
1683.38	63.49
1683.73	-10.24
1684.08	-38.91
1684.44	-40.96
1684.79	-30.72
1685.14	-8.19
1685.49	2.05
1685.84	30.72
1686.19	24.58
1686.55	-28.67
1686.90	18.43
1687.25	-16.38
1687.60	36.86
1687.95	30.72
1688.30	0.00
1688.65	24.58
1689.01	32.77
1689.36	12.29
1689.71	-40.96
1690.06	63.49
1690.41	-6.14
1690.76	-20.48
1691.11	51.20
1691.46	-8.19
1691.82	59.39
1692.17	61.44
1692.52	-61.44
1692.87	8.19
1693.22	-16.38
1693.57	36.86
1693.92	-43.01
1694.27	45.06
1694.62	-65.53
1694.97	-67.58
1695.33	18.43
1695.68	24.58
1696.03	32.77
1696.38	28.67
1696.73	-14.34
1697.08	-71.68
1697.43	34.82
1697.78	-20.48
1698.13	-53.25
1698.48	10.24
1698.83	-22.53
1699.18	-65.54
1699.53	51.20
1699.88	-14.34
1700.24	-73.73
1700.59	-6.14
1700.94	-20.48
1701.29	-12.29
1701.64	65.53
1701.99	61.44
1702.34	34.82
1702.69	-16.38
1703.04	-32.77
1703.39	8.19
1703.74	12.29
1704.09	81.92
1704.44	2.05
1704.79	30.72
1705.14	24.58
1705.49	-30.72
1705.84	26.62
1706.19	-30.72
1706.54	79.87
1706.89	-79.87
1707.24	-59.39
1707.59	-57.34
1707.94	-24.58
1708.29	51.20
1708.64	6.14
1708.99	43.01
1709.34	-75.77
1709.69	28.67
1710.04	-67.58
1710.39	22.53
1710.74	-24.58
1711.09	-10.24
1711.44	49.15
1711.79	-43.01
1712.14	-59.39
1712.49	-63.49
1712.84	-73.73
1713.18	10.24
1713.53	24.58
1713.88	-16.38
1714.23	43.01
1714.58	-6.14
1714.93	36.86
1715.28	75.77
1715.63	-10.24
1715.98	4.10
1716.33	45.06
1716.68	12.29
1717.03	-43.01
1717.38	51.20
1717.73	75.77
1718.08	6.14
1718.42	40.96
1718.77	45.06
1719.12	-92.16
1719.47	-18.43
1719.82	98.30
1720.17	14.34
1720.52	8.19
1720.87	32.77
1721.22	-18.43
1721.57	55.30
1721.91	32.77
1722.26	2.05
1722.61	77.82
1722.96	-16.38
1723.31	-36.86
1723.66	-10.24
1724.01	6.14
1724.36	98.30
1724.70	12.29
1725.05	-28.67
1725.40	-26.62
1725.75	-26.62
1726.10	-43.01
1726.45	6.14
1726.80	32.77
1727.14	-24.58
1727.49	118.78
1727.84	16.38
1728.19	2.05
1728.54	-65.53
1728.89	-24.58
1729.23	-4.10
1729.58	51.20
1729.93	-81.92
1730.28	-20.48
1730.63	28.67
1730.97	8.19
1731.32	75.77
1731.67	38.91
1732.02	4.10
1732.37	26.62
1732.72	-24.58
1733.06	-45.06
1733.41	-22.53
1733.76	-10.24
1734.11	0.00
1734.46	61.44
1734.80	108.54
1735.15	-26.62
1735.50	34.82
1735.85	-8.19
1736.19	16.38
1736.54	61.44
>>>>>End Processed Spectral Data<<<<<
